2/2/2021 9:01 AM
Wavelength (nm)	10mm Absorbance
//WLCalib: Shift 	0.01000	
//WLCalib: 261S 	-0.50000	
//WLCalib: 362S 	-0.51000	
//WLCalib: 484S 	-0.29000	
//WLCalib: 529S 	-0.04000	
//WLCalib: 823S 	-0.52000	
//QSpecEnd: 
250.0	0.022
250.5	0.023
251.0	0.023
251.5	0.022
252.0	0.027
252.5	0.030
253.0	0.031
253.5	0.031
254.0	0.028
254.5	0.029
255.0	0.031
255.5	0.033
256.0	0.035
256.5	0.033
257.0	0.033
257.5	0.032
258.0	0.032
258.5	0.032
259.0	0.032
259.5	0.032
260.0	0.031
260.5	0.030
261.0	0.030
261.5	0.031
262.0	0.031
262.5	0.030
263.0	0.030
263.5	0.030
264.0	0.030
264.5	0.030
265.0	0.030
265.5	0.031
266.0	0.031
266.5	0.031
267.0	0.032
267.5	0.032
268.0	0.033
268.5	0.033
269.0	0.033
269.5	0.033
270.0	0.033
270.5	0.033
271.0	0.033
271.5	0.033
272.0	0.033
272.5	0.034
273.0	0.033
273.5	0.033
274.0	0.034
274.5	0.033
275.0	0.034
275.5	0.034
276.0	0.034
276.5	0.034
277.0	0.035
277.5	0.035
278.0	0.035
278.5	0.035
279.0	0.036
279.5	0.036
280.0	0.037
280.5	0.037
281.0	0.037
281.5	0.037
282.0	0.037
282.5	0.038
283.0	0.038
283.5	0.038
284.0	0.038
284.5	0.038
285.0	0.038
285.5	0.039
286.0	0.039
286.5	0.039
287.0	0.039
287.5	0.039
288.0	0.040
288.5	0.040
289.0	0.040
289.5	0.040
290.0	0.041
290.5	0.041
291.0	0.041
291.5	0.041
292.0	0.042
292.5	0.042
293.0	0.042
293.5	0.043
294.0	0.043
294.5	0.043
295.0	0.043
295.5	0.043
296.0	0.043
296.5	0.044
297.0	0.044
297.5	0.044
298.0	0.044
298.5	0.044
299.0	0.044
299.5	0.044
300.0	0.044
300.5	0.044
301.0	0.044
301.5	0.044
302.0	0.044
302.5	0.044
303.0	0.044
303.5	0.045
304.0	0.045
304.5	0.045
305.0	0.045
305.5	0.045
306.0	0.045
306.5	0.045
307.0	0.046
307.5	0.046
308.0	0.046
308.5	0.046
309.0	0.046
309.5	0.046
310.0	0.046
310.5	0.046
311.0	0.046
311.5	0.046
312.0	0.046
312.5	0.046
313.0	0.046
313.5	0.046
314.0	0.046
314.5	0.046
315.0	0.046
315.5	0.046
316.0	0.046
316.5	0.046
317.0	0.046
317.5	0.046
318.0	0.046
318.5	0.046
319.0	0.046
319.5	0.046
320.0	0.046
320.5	0.046
321.0	0.046
321.5	0.046
322.0	0.046
322.5	0.046
323.0	0.046
323.5	0.046
324.0	0.046
324.5	0.046
325.0	0.046
325.5	0.046
326.0	0.046
326.5	0.046
327.0	0.046
327.5	0.046
328.0	0.046
328.5	0.046
329.0	0.046
329.5	0.046
330.0	0.046
330.5	0.046
331.0	0.046
331.5	0.046
332.0	0.046
332.5	0.046
333.0	0.046
333.5	0.046
334.0	0.046
334.5	0.046
335.0	0.046
335.5	0.046
336.0	0.046
336.5	0.046
337.0	0.046
337.5	0.046
338.0	0.046
338.5	0.045
339.0	0.045
339.5	0.045
340.0	0.045
340.5	0.045
341.0	0.045
341.5	0.045
342.0	0.045
342.5	0.045
343.0	0.045
343.5	0.045
344.0	0.045
344.5	0.045
345.0	0.045
345.5	0.045
346.0	0.045
346.5	0.045
347.0	0.045
347.5	0.045
348.0	0.045
348.5	0.045
349.0	0.045
349.5	0.045
350.0	0.045
350.5	0.045
351.0	0.045
351.5	0.045
352.0	0.045
352.5	0.045
353.0	0.045
353.5	0.045
354.0	0.046
354.5	0.046
355.0	0.046
355.5	0.046
356.0	0.045
356.5	0.045
357.0	0.045
357.5	0.045
358.0	0.046
358.5	0.045
359.0	0.045
359.5	0.046
360.0	0.046
360.5	0.045
361.0	0.045
361.5	0.045
362.0	0.045
362.5	0.045
363.0	0.045
363.5	0.045
364.0	0.045
364.5	0.045
365.0	0.045
365.5	0.045
366.0	0.046
366.5	0.046
367.0	0.045
367.5	0.045
368.0	0.045
368.5	0.045
369.0	0.046
369.5	0.046
370.0	0.046
370.5	0.045
371.0	0.046
371.5	0.046
372.0	0.046
372.5	0.045
373.0	0.046
373.5	0.045
374.0	0.045
374.5	0.045
375.0	0.045
375.5	0.045
376.0	0.045
376.5	0.045
377.0	0.045
377.5	0.046
378.0	0.045
378.5	0.045
379.0	0.045
379.5	0.045
380.0	0.045
380.5	0.045
381.0	0.046
381.5	0.046
382.0	0.046
382.5	0.046
383.0	0.046
383.5	0.046
384.0	0.046
384.5	0.046
385.0	0.046
385.5	0.047
386.0	0.047
386.5	0.047
387.0	0.047
387.5	0.047
388.0	0.047
388.5	0.047
389.0	0.047
389.5	0.047
390.0	0.047
390.5	0.047
391.0	0.047
391.5	0.047
392.0	0.047
392.5	0.047
393.0	0.047
393.5	0.047
394.0	0.047
394.5	0.047
395.0	0.047
395.5	0.046
396.0	0.046
396.5	0.046
397.0	0.046
397.5	0.046
398.0	0.046
398.5	0.046
399.0	0.046
399.5	0.046
400.0	0.046
400.5	0.046
401.0	0.047
401.5	0.047
402.0	0.047
402.5	0.047
403.0	0.047
403.5	0.047
404.0	0.047
404.5	0.047
405.0	0.047
405.5	0.047
406.0	0.047
406.5	0.047
407.0	0.047
407.5	0.047
408.0	0.048
408.5	0.048
409.0	0.048
409.5	0.048
410.0	0.048
410.5	0.048
411.0	0.048
411.5	0.048
412.0	0.048
412.5	0.048
413.0	0.048
413.5	0.048
414.0	0.048
414.5	0.048
415.0	0.048
415.5	0.048
416.0	0.048
416.5	0.048
417.0	0.048
417.5	0.048
418.0	0.048
418.5	0.048
419.0	0.048
419.5	0.048
420.0	0.048
420.5	0.049
421.0	0.049
421.5	0.049
422.0	0.049
422.5	0.049
423.0	0.049
423.5	0.049
424.0	0.049
424.5	0.049
425.0	0.049
425.5	0.049
426.0	0.049
426.5	0.049
427.0	0.049
427.5	0.049
428.0	0.049
428.5	0.049
429.0	0.049
429.5	0.049
430.0	0.049
430.5	0.049
431.0	0.049
431.5	0.049
432.0	0.049
432.5	0.049
433.0	0.049
433.5	0.049
434.0	0.049
434.5	0.049
435.0	0.049
435.5	0.049
436.0	0.049
436.5	0.049
437.0	0.049
437.5	0.049
438.0	0.049
438.5	0.049
439.0	0.049
439.5	0.049
440.0	0.050
440.5	0.050
441.0	0.050
441.5	0.050
442.0	0.050
442.5	0.050
443.0	0.050
443.5	0.050
444.0	0.050
444.5	0.050
445.0	0.050
445.5	0.050
446.0	0.050
446.5	0.050
447.0	0.050
447.5	0.051
448.0	0.051
448.5	0.050
449.0	0.050
449.5	0.050
450.0	0.051
450.5	0.051
451.0	0.051
451.5	0.051
452.0	0.051
452.5	0.051
453.0	0.051
453.5	0.051
454.0	0.051
454.5	0.051
455.0	0.050
455.5	0.051
456.0	0.051
456.5	0.051
457.0	0.051
457.5	0.051
458.0	0.051
458.5	0.051
459.0	0.051
459.5	0.051
460.0	0.051
460.5	0.051
461.0	0.051
461.5	0.051
462.0	0.051
462.5	0.051
463.0	0.051
463.5	0.051
464.0	0.051
464.5	0.051
465.0	0.051
465.5	0.051
466.0	0.051
466.5	0.051
467.0	0.051
467.5	0.051
468.0	0.051
468.5	0.051
469.0	0.051
469.5	0.051
470.0	0.051
470.5	0.051
471.0	0.051
471.5	0.051
472.0	0.051
472.5	0.051
473.0	0.051
473.5	0.051
474.0	0.052
474.5	0.052
475.0	0.052
475.5	0.051
476.0	0.051
476.5	0.052
477.0	0.052
477.5	0.052
478.0	0.052
478.5	0.052
479.0	0.052
479.5	0.052
480.0	0.052
480.5	0.052
481.0	0.052
481.5	0.052
482.0	0.052
482.5	0.052
483.0	0.052
483.5	0.052
484.0	0.052
484.5	0.052
485.0	0.052
485.5	0.052
486.0	0.052
486.5	0.052
487.0	0.052
487.5	0.052
488.0	0.052
488.5	0.052
489.0	0.052
489.5	0.052
490.0	0.052
490.5	0.052
491.0	0.052
491.5	0.052
492.0	0.052
492.5	0.052
493.0	0.052
493.5	0.052
494.0	0.052
494.5	0.052
495.0	0.052
495.5	0.052
496.0	0.052
496.5	0.052
497.0	0.052
497.5	0.052
498.0	0.052
498.5	0.052
499.0	0.052
499.5	0.052
500.0	0.053
500.5	0.053
501.0	0.053
501.5	0.053
502.0	0.053
502.5	0.053
503.0	0.053
503.5	0.053
504.0	0.053
504.5	0.053
505.0	0.053
505.5	0.053
506.0	0.053
506.5	0.053
507.0	0.053
507.5	0.053
508.0	0.053
508.5	0.053
509.0	0.053
509.5	0.053
510.0	0.054
510.5	0.054
511.0	0.054
511.5	0.054
512.0	0.054
512.5	0.054
513.0	0.054
513.5	0.054
514.0	0.053
514.5	0.053
515.0	0.053
515.5	0.053
516.0	0.053
516.5	0.053
517.0	0.053
517.5	0.053
518.0	0.053
518.5	0.053
519.0	0.053
519.5	0.053
520.0	0.053
520.5	0.053
521.0	0.053
521.5	0.053
522.0	0.053
522.5	0.053
523.0	0.054
523.5	0.053
524.0	0.053
524.5	0.053
525.0	0.053
525.5	0.054
526.0	0.054
526.5	0.054
527.0	0.054
527.5	0.054
528.0	0.054
528.5	0.054
529.0	0.054
529.5	0.054
530.0	0.054
530.5	0.054
531.0	0.054
531.5	0.054
532.0	0.054
532.5	0.054
533.0	0.054
533.5	0.054
534.0	0.054
534.5	0.054
535.0	0.054
535.5	0.054
536.0	0.054
536.5	0.054
537.0	0.054
537.5	0.054
538.0	0.054
538.5	0.054
539.0	0.054
539.5	0.054
540.0	0.054
540.5	0.054
541.0	0.054
541.5	0.054
542.0	0.054
542.5	0.054
543.0	0.054
543.5	0.054
544.0	0.054
544.5	0.054
545.0	0.054
545.5	0.054
546.0	0.054
546.5	0.054
547.0	0.054
547.5	0.054
548.0	0.054
548.5	0.054
549.0	0.054
549.5	0.054
550.0	0.054
550.5	0.054
551.0	0.054
551.5	0.054
552.0	0.054
552.5	0.054
553.0	0.054
553.5	0.054
554.0	0.054
554.5	0.054
555.0	0.054
555.5	0.054
556.0	0.054
556.5	0.054
557.0	0.054
557.5	0.054
558.0	0.054
558.5	0.054
559.0	0.054
559.5	0.054
560.0	0.054
560.5	0.054
561.0	0.054
561.5	0.054
562.0	0.054
562.5	0.054
563.0	0.054
563.5	0.054
564.0	0.054
564.5	0.054
565.0	0.054
565.5	0.054
566.0	0.054
566.5	0.054
567.0	0.054
567.5	0.054
568.0	0.054
568.5	0.054
569.0	0.054
569.5	0.054
570.0	0.054
570.5	0.054
571.0	0.054
571.5	0.054
572.0	0.054
572.5	0.054
573.0	0.054
573.5	0.054
574.0	0.054
574.5	0.054
575.0	0.054
575.5	0.054
576.0	0.054
576.5	0.054
577.0	0.054
577.5	0.054
578.0	0.054
578.5	0.054
579.0	0.054
579.5	0.054
580.0	0.054
580.5	0.054
581.0	0.054
581.5	0.055
582.0	0.055
582.5	0.055
583.0	0.055
583.5	0.055
584.0	0.054
584.5	0.054
585.0	0.054
585.5	0.054
586.0	0.054
586.5	0.054
587.0	0.054
587.5	0.054
588.0	0.054
588.5	0.054
589.0	0.054
589.5	0.054
590.0	0.054
590.5	0.054
591.0	0.054
591.5	0.054
592.0	0.054
592.5	0.054
593.0	0.054
593.5	0.054
594.0	0.054
594.5	0.054
595.0	0.054
595.5	0.054
596.0	0.054
596.5	0.054
597.0	0.054
597.5	0.054
598.0	0.054
598.5	0.054
599.0	0.054
599.5	0.054
600.0	0.054
600.5	0.054
601.0	0.054
601.5	0.054
602.0	0.054
602.5	0.054
603.0	0.054
603.5	0.054
604.0	0.054
604.5	0.054
605.0	0.054
605.5	0.054
606.0	0.054
606.5	0.054
607.0	0.054
607.5	0.054
608.0	0.054
608.5	0.054
609.0	0.054
609.5	0.054
610.0	0.054
610.5	0.054
611.0	0.054
611.5	0.054
612.0	0.054
612.5	0.054
613.0	0.055
613.5	0.055
614.0	0.055
614.5	0.054
615.0	0.055
615.5	0.055
616.0	0.054
616.5	0.054
617.0	0.055
617.5	0.055
618.0	0.055
618.5	0.055
619.0	0.054
619.5	0.054
620.0	0.054
620.5	0.054
621.0	0.054
621.5	0.054
622.0	0.054
622.5	0.054
623.0	0.054
623.5	0.054
624.0	0.054
624.5	0.054
625.0	0.054
625.5	0.054
626.0	0.054
626.5	0.054
627.0	0.054
627.5	0.054
628.0	0.054
628.5	0.054
629.0	0.054
629.5	0.054
630.0	0.054
630.5	0.054
631.0	0.054
631.5	0.055
632.0	0.055
632.5	0.054
633.0	0.054
633.5	0.054
634.0	0.054
634.5	0.054
635.0	0.054
635.5	0.054
636.0	0.054
636.5	0.054
637.0	0.054
637.5	0.054
638.0	0.054
638.5	0.054
639.0	0.054
639.5	0.054
640.0	0.054
640.5	0.054
641.0	0.054
641.5	0.054
642.0	0.054
642.5	0.054
643.0	0.054
643.5	0.054
644.0	0.054
644.5	0.054
645.0	0.054
645.5	0.054
646.0	0.054
646.5	0.054
647.0	0.054
647.5	0.054
648.0	0.054
648.5	0.054
649.0	0.054
649.5	0.054
650.0	0.054
650.5	0.054
651.0	0.054
651.5	0.054
652.0	0.054
652.5	0.054
653.0	0.054
653.5	0.054
654.0	0.054
654.5	0.054
655.0	0.054
655.5	0.054
656.0	0.054
656.5	0.054
657.0	0.054
657.5	0.054
658.0	0.054
658.5	0.054
659.0	0.054
659.5	0.054
660.0	0.054
660.5	0.054
661.0	0.054
661.5	0.054
662.0	0.054
662.5	0.054
663.0	0.054
663.5	0.054
664.0	0.054
664.5	0.054
665.0	0.054
665.5	0.054
666.0	0.054
666.5	0.053
667.0	0.053
667.5	0.053
668.0	0.053
668.5	0.053
669.0	0.054
669.5	0.054
670.0	0.054
670.5	0.054
671.0	0.054
671.5	0.054
672.0	0.054
672.5	0.054
673.0	0.054
673.5	0.054
674.0	0.054
674.5	0.055
675.0	0.055
675.5	0.055
676.0	0.054
676.5	0.054
677.0	0.054
677.5	0.054
678.0	0.054
678.5	0.054
679.0	0.054
679.5	0.054
680.0	0.054
680.5	0.054
681.0	0.054
681.5	0.053
682.0	0.053
682.5	0.053
683.0	0.053
683.5	0.053
684.0	0.053
684.5	0.053
685.0	0.053
685.5	0.053
686.0	0.053
686.5	0.053
687.0	0.053
687.5	0.053
688.0	0.053
688.5	0.053
689.0	0.053
689.5	0.053
690.0	0.053
690.5	0.053
691.0	0.053
691.5	0.053
692.0	0.054
692.5	0.053
693.0	0.053
693.5	0.053
694.0	0.053
694.5	0.053
695.0	0.053
695.5	0.053
696.0	0.053
696.5	0.053
697.0	0.053
697.5	0.053
698.0	0.053
698.5	0.053
699.0	0.053
699.5	0.054
700.0	0.053



2/2/2021 9:30 AM
Wavelength (nm)	10mm Absorbance
//WLCalib: Shift 	0.01000	
//WLCalib: 261S 	-0.50000	
//WLCalib: 362S 	-0.51000	
//WLCalib: 484S 	-0.29000	
//WLCalib: 529S 	-0.04000	
//WLCalib: 823S 	-0.52000	
//QSpecEnd: 
250.0	0.013
250.5	0.009
251.0	0.004
251.5	0.006
252.0	0.013
252.5	0.013
253.0	0.015
253.5	0.022
254.0	0.020
254.5	0.021
255.0	0.024
255.5	0.024
256.0	0.024
256.5	0.026
257.0	0.026
257.5	0.027
258.0	0.028
258.5	0.028
259.0	0.029
259.5	0.029
260.0	0.029
260.5	0.029
261.0	0.029
261.5	0.029
262.0	0.029
262.5	0.029
263.0	0.029
263.5	0.029
264.0	0.029
264.5	0.029
265.0	0.029
265.5	0.029
266.0	0.029
266.5	0.029
267.0	0.029
267.5	0.029
268.0	0.029
268.5	0.029
269.0	0.029
269.5	0.030
270.0	0.030
270.5	0.030
271.0	0.030
271.5	0.030
272.0	0.030
272.5	0.031
273.0	0.031
273.5	0.031
274.0	0.031
274.5	0.031
275.0	0.031
275.5	0.032
276.0	0.032
276.5	0.032
277.0	0.032
277.5	0.033
278.0	0.033
278.5	0.034
279.0	0.034
279.5	0.034
280.0	0.034
280.5	0.034
281.0	0.035
281.5	0.035
282.0	0.035
282.5	0.035
283.0	0.036
283.5	0.036
284.0	0.036
284.5	0.036
285.0	0.036
285.5	0.037
286.0	0.037
286.5	0.037
287.0	0.037
287.5	0.037
288.0	0.037
288.5	0.037
289.0	0.037
289.5	0.038
290.0	0.038
290.5	0.038
291.0	0.038
291.5	0.038
292.0	0.038
292.5	0.038
293.0	0.038
293.5	0.039
294.0	0.039
294.5	0.039
295.0	0.039
295.5	0.039
296.0	0.040
296.5	0.040
297.0	0.040
297.5	0.040
298.0	0.040
298.5	0.040
299.0	0.041
299.5	0.041
300.0	0.041
300.5	0.041
301.0	0.041
301.5	0.041
302.0	0.042
302.5	0.042
303.0	0.042
303.5	0.042
304.0	0.042
304.5	0.042
305.0	0.042
305.5	0.042
306.0	0.042
306.5	0.042
307.0	0.042
307.5	0.042
308.0	0.042
308.5	0.042
309.0	0.042
309.5	0.042
310.0	0.042
310.5	0.042
311.0	0.042
311.5	0.042
312.0	0.043
312.5	0.043
313.0	0.043
313.5	0.043
314.0	0.043
314.5	0.043
315.0	0.043
315.5	0.043
316.0	0.043
316.5	0.043
317.0	0.043
317.5	0.043
318.0	0.043
318.5	0.043
319.0	0.043
319.5	0.043
320.0	0.043
320.5	0.043
321.0	0.043
321.5	0.043
322.0	0.043
322.5	0.043
323.0	0.043
323.5	0.043
324.0	0.044
324.5	0.044
325.0	0.044
325.5	0.044
326.0	0.044
326.5	0.044
327.0	0.044
327.5	0.044
328.0	0.044
328.5	0.044
329.0	0.044
329.5	0.044
330.0	0.044
330.5	0.044
331.0	0.044
331.5	0.044
332.0	0.044
332.5	0.044
333.0	0.044
333.5	0.044
334.0	0.044
334.5	0.044
335.0	0.044
335.5	0.044
336.0	0.044
336.5	0.044
337.0	0.044
337.5	0.044
338.0	0.044
338.5	0.044
339.0	0.044
339.5	0.043
340.0	0.043
340.5	0.043
341.0	0.043
341.5	0.043
342.0	0.043
342.5	0.043
343.0	0.043
343.5	0.043
344.0	0.043
344.5	0.044
345.0	0.044
345.5	0.044
346.0	0.044
346.5	0.044
347.0	0.044
347.5	0.045
348.0	0.045
348.5	0.045
349.0	0.045
349.5	0.045
350.0	0.045
350.5	0.045
351.0	0.045
351.5	0.045
352.0	0.045
352.5	0.045
353.0	0.045
353.5	0.045
354.0	0.044
354.5	0.045
355.0	0.044
355.5	0.044
356.0	0.044
356.5	0.044
357.0	0.044
357.5	0.044
358.0	0.044
358.5	0.044
359.0	0.044
359.5	0.044
360.0	0.045
360.5	0.045
361.0	0.045
361.5	0.045
362.0	0.045
362.5	0.045
363.0	0.045
363.5	0.045
364.0	0.045
364.5	0.045
365.0	0.045
365.5	0.045
366.0	0.046
366.5	0.046
367.0	0.046
367.5	0.046
368.0	0.046
368.5	0.046
369.0	0.046
369.5	0.046
370.0	0.046
370.5	0.046
371.0	0.046
371.5	0.046
372.0	0.046
372.5	0.046
373.0	0.047
373.5	0.046
374.0	0.046
374.5	0.046
375.0	0.047
375.5	0.047
376.0	0.047
376.5	0.047
377.0	0.047
377.5	0.047
378.0	0.047
378.5	0.047
379.0	0.047
379.5	0.048
380.0	0.047
380.5	0.047
381.0	0.047
381.5	0.048
382.0	0.048
382.5	0.048
383.0	0.048
383.5	0.048
384.0	0.048
384.5	0.048
385.0	0.048
385.5	0.048
386.0	0.048
386.5	0.048
387.0	0.048
387.5	0.048
388.0	0.048
388.5	0.048
389.0	0.049
389.5	0.049
390.0	0.049
390.5	0.049
391.0	0.049
391.5	0.049
392.0	0.049
392.5	0.049
393.0	0.049
393.5	0.049
394.0	0.049
394.5	0.049
395.0	0.049
395.5	0.049
396.0	0.049
396.5	0.049
397.0	0.049
397.5	0.049
398.0	0.049
398.5	0.049
399.0	0.049
399.5	0.049
400.0	0.049
400.5	0.049
401.0	0.049
401.5	0.049
402.0	0.049
402.5	0.049
403.0	0.049
403.5	0.049
404.0	0.049
404.5	0.049
405.0	0.050
405.5	0.050
406.0	0.050
406.5	0.050
407.0	0.050
407.5	0.050
408.0	0.050
408.5	0.050
409.0	0.050
409.5	0.050
410.0	0.050
410.5	0.050
411.0	0.050
411.5	0.050
412.0	0.050
412.5	0.050
413.0	0.050
413.5	0.050
414.0	0.051
414.5	0.051
415.0	0.051
415.5	0.051
416.0	0.051
416.5	0.051
417.0	0.051
417.5	0.051
418.0	0.051
418.5	0.051
419.0	0.051
419.5	0.051
420.0	0.051
420.5	0.051
421.0	0.051
421.5	0.051
422.0	0.051
422.5	0.051
423.0	0.051
423.5	0.051
424.0	0.051
424.5	0.051
425.0	0.051
425.5	0.052
426.0	0.052
426.5	0.052
427.0	0.052
427.5	0.052
428.0	0.052
428.5	0.052
429.0	0.052
429.5	0.052
430.0	0.052
430.5	0.052
431.0	0.052
431.5	0.052
432.0	0.052
432.5	0.052
433.0	0.052
433.5	0.052
434.0	0.052
434.5	0.052
435.0	0.053
435.5	0.053
436.0	0.053
436.5	0.053
437.0	0.053
437.5	0.053
438.0	0.053
438.5	0.053
439.0	0.053
439.5	0.054
440.0	0.054
440.5	0.054
441.0	0.054
441.5	0.054
442.0	0.054
442.5	0.054
443.0	0.054
443.5	0.054
444.0	0.054
444.5	0.054
445.0	0.054
445.5	0.054
446.0	0.054
446.5	0.054
447.0	0.054
447.5	0.054
448.0	0.054
448.5	0.054
449.0	0.054
449.5	0.054
450.0	0.054
450.5	0.054
451.0	0.054
451.5	0.054
452.0	0.055
452.5	0.055
453.0	0.055
453.5	0.055
454.0	0.055
454.5	0.055
455.0	0.055
455.5	0.055
456.0	0.055
456.5	0.055
457.0	0.055
457.5	0.055
458.0	0.055
458.5	0.055
459.0	0.055
459.5	0.055
460.0	0.055
460.5	0.056
461.0	0.055
461.5	0.055
462.0	0.055
462.5	0.055
463.0	0.056
463.5	0.056
464.0	0.056
464.5	0.056
465.0	0.056
465.5	0.056
466.0	0.056
466.5	0.056
467.0	0.056
467.5	0.056
468.0	0.056
468.5	0.056
469.0	0.056
469.5	0.056
470.0	0.056
470.5	0.056
471.0	0.056
471.5	0.056
472.0	0.056
472.5	0.056
473.0	0.057
473.5	0.057
474.0	0.057
474.5	0.057
475.0	0.057
475.5	0.057
476.0	0.057
476.5	0.057
477.0	0.057
477.5	0.057
478.0	0.057
478.5	0.057
479.0	0.057
479.5	0.057
480.0	0.057
480.5	0.057
481.0	0.057
481.5	0.057
482.0	0.057
482.5	0.057
483.0	0.057
483.5	0.057
484.0	0.057
484.5	0.057
485.0	0.057
485.5	0.057
486.0	0.057
486.5	0.057
487.0	0.057
487.5	0.057
488.0	0.058
488.5	0.058
489.0	0.058
489.5	0.058
490.0	0.058
490.5	0.058
491.0	0.058
491.5	0.058
492.0	0.058
492.5	0.058
493.0	0.058
493.5	0.058
494.0	0.058
494.5	0.058
495.0	0.058
495.5	0.059
496.0	0.059
496.5	0.059
497.0	0.059
497.5	0.059
498.0	0.059
498.5	0.059
499.0	0.059
499.5	0.059
500.0	0.059
500.5	0.059
501.0	0.059
501.5	0.059
502.0	0.059
502.5	0.060
503.0	0.060
503.5	0.060
504.0	0.060
504.5	0.060
505.0	0.060
505.5	0.060
506.0	0.060
506.5	0.060
507.0	0.060
507.5	0.061
508.0	0.061
508.5	0.061
509.0	0.061
509.5	0.061
510.0	0.061
510.5	0.061
511.0	0.061
511.5	0.061
512.0	0.061
512.5	0.061
513.0	0.061
513.5	0.061
514.0	0.060
514.5	0.061
515.0	0.060
515.5	0.060
516.0	0.060
516.5	0.061
517.0	0.061
517.5	0.061
518.0	0.061
518.5	0.061
519.0	0.061
519.5	0.061
520.0	0.061
520.5	0.061
521.0	0.061
521.5	0.061
522.0	0.061
522.5	0.061
523.0	0.061
523.5	0.061
524.0	0.061
524.5	0.061
525.0	0.061
525.5	0.061
526.0	0.061
526.5	0.061
527.0	0.061
527.5	0.061
528.0	0.061
528.5	0.061
529.0	0.061
529.5	0.061
530.0	0.061
530.5	0.061
531.0	0.061
531.5	0.061
532.0	0.062
532.5	0.062
533.0	0.061
533.5	0.062
534.0	0.062
534.5	0.062
535.0	0.062
535.5	0.062
536.0	0.062
536.5	0.062
537.0	0.062
537.5	0.062
538.0	0.062
538.5	0.062
539.0	0.062
539.5	0.062
540.0	0.062
540.5	0.062
541.0	0.062
541.5	0.062
542.0	0.062
542.5	0.062
543.0	0.062
543.5	0.062
544.0	0.062
544.5	0.062
545.0	0.062
545.5	0.062
546.0	0.062
546.5	0.062
547.0	0.062
547.5	0.063
548.0	0.062
548.5	0.063
549.0	0.063
549.5	0.063
550.0	0.063
550.5	0.063
551.0	0.063
551.5	0.063
552.0	0.063
552.5	0.063
553.0	0.063
553.5	0.063
554.0	0.063
554.5	0.063
555.0	0.063
555.5	0.063
556.0	0.063
556.5	0.063
557.0	0.063
557.5	0.063
558.0	0.063
558.5	0.063
559.0	0.063
559.5	0.063
560.0	0.064
560.5	0.064
561.0	0.064
561.5	0.064
562.0	0.064
562.5	0.064
563.0	0.064
563.5	0.064
564.0	0.064
564.5	0.064
565.0	0.064
565.5	0.064
566.0	0.064
566.5	0.064
567.0	0.064
567.5	0.065
568.0	0.064
568.5	0.064
569.0	0.064
569.5	0.065
570.0	0.065
570.5	0.065
571.0	0.065
571.5	0.065
572.0	0.065
572.5	0.065
573.0	0.065
573.5	0.065
574.0	0.065
574.5	0.065
575.0	0.065
575.5	0.065
576.0	0.065
576.5	0.065
577.0	0.065
577.5	0.065
578.0	0.065
578.5	0.065
579.0	0.065
579.5	0.065
580.0	0.065
580.5	0.065
581.0	0.065
581.5	0.065
582.0	0.065
582.5	0.065
583.0	0.065
583.5	0.065
584.0	0.066
584.5	0.066
585.0	0.065
585.5	0.066
586.0	0.065
586.5	0.065
587.0	0.065
587.5	0.065
588.0	0.065
588.5	0.065
589.0	0.065
589.5	0.065
590.0	0.065
590.5	0.066
591.0	0.066
591.5	0.066
592.0	0.066
592.5	0.065
593.0	0.065
593.5	0.065
594.0	0.066
594.5	0.066
595.0	0.066
595.5	0.066
596.0	0.066
596.5	0.066
597.0	0.066
597.5	0.066
598.0	0.066
598.5	0.066
599.0	0.066
599.5	0.066
600.0	0.066
600.5	0.066
601.0	0.067
601.5	0.067
602.0	0.067
602.5	0.067
603.0	0.066
603.5	0.067
604.0	0.066
604.5	0.066
605.0	0.066
605.5	0.066
606.0	0.066
606.5	0.066
607.0	0.067
607.5	0.067
608.0	0.067
608.5	0.067
609.0	0.067
609.5	0.067
610.0	0.067
610.5	0.067
611.0	0.067
611.5	0.067
612.0	0.067
612.5	0.068
613.0	0.068
613.5	0.068
614.0	0.068
614.5	0.068
615.0	0.067
615.5	0.068
616.0	0.067
616.5	0.067
617.0	0.068
617.5	0.068
618.0	0.068
618.5	0.068
619.0	0.068
619.5	0.068
620.0	0.068
620.5	0.068
621.0	0.068
621.5	0.068
622.0	0.068
622.5	0.068
623.0	0.068
623.5	0.068
624.0	0.068
624.5	0.068
625.0	0.068
625.5	0.068
626.0	0.068
626.5	0.068
627.0	0.068
627.5	0.068
628.0	0.068
628.5	0.068
629.0	0.068
629.5	0.068
630.0	0.068
630.5	0.068
631.0	0.068
631.5	0.068
632.0	0.068
632.5	0.068
633.0	0.068
633.5	0.068
634.0	0.068
634.5	0.068
635.0	0.068
635.5	0.068
636.0	0.068
636.5	0.068
637.0	0.068
637.5	0.068
638.0	0.068
638.5	0.068
639.0	0.069
639.5	0.069
640.0	0.069
640.5	0.069
641.0	0.069
641.5	0.069
642.0	0.069
642.5	0.069
643.0	0.068
643.5	0.069
644.0	0.069
644.5	0.069
645.0	0.068
645.5	0.068
646.0	0.068
646.5	0.069
647.0	0.068
647.5	0.068
648.0	0.069
648.5	0.069
649.0	0.069
649.5	0.069
650.0	0.069
650.5	0.069
651.0	0.069
651.5	0.069
652.0	0.069
652.5	0.069
653.0	0.069
653.5	0.069
654.0	0.069
654.5	0.069
655.0	0.069
655.5	0.069
656.0	0.068
656.5	0.068
657.0	0.068
657.5	0.068
658.0	0.068
658.5	0.068
659.0	0.068
659.5	0.068
660.0	0.068
660.5	0.068
661.0	0.068
661.5	0.068
662.0	0.068
662.5	0.068
663.0	0.068
663.5	0.068
664.0	0.069
664.5	0.069
665.0	0.069
665.5	0.069
666.0	0.069
666.5	0.070
667.0	0.070
667.5	0.070
668.0	0.070
668.5	0.070
669.0	0.070
669.5	0.071
670.0	0.071
670.5	0.071
671.0	0.071
671.5	0.071
672.0	0.071
672.5	0.071
673.0	0.071
673.5	0.071
674.0	0.071
674.5	0.071
675.0	0.070
675.5	0.070
676.0	0.070
676.5	0.071
677.0	0.071
677.5	0.071
678.0	0.071
678.5	0.070
679.0	0.070
679.5	0.070
680.0	0.070
680.5	0.070
681.0	0.070
681.5	0.070
682.0	0.070
682.5	0.070
683.0	0.070
683.5	0.070
684.0	0.070
684.5	0.069
685.0	0.069
685.5	0.069
686.0	0.069
686.5	0.069
687.0	0.069
687.5	0.069
688.0	0.070
688.5	0.070
689.0	0.070
689.5	0.070
690.0	0.070
690.5	0.070
691.0	0.070
691.5	0.070
692.0	0.070
692.5	0.070
693.0	0.070
693.5	0.070
694.0	0.070
694.5	0.071
695.0	0.071
695.5	0.071
696.0	0.071
696.5	0.072
697.0	0.072
697.5	0.072
698.0	0.072
698.5	0.072
699.0	0.073
699.5	0.073
700.0	0.073



2/2/2021 9:33 AM
Wavelength (nm)	10mm Absorbance
//WLCalib: Shift 	0.01000	
//WLCalib: 261S 	-0.50000	
//WLCalib: 362S 	-0.51000	
//WLCalib: 484S 	-0.29000	
//WLCalib: 529S 	-0.04000	
//WLCalib: 823S 	-0.52000	
//QSpecEnd: 
250.0	0.070
250.5	0.085
251.0	0.089
251.5	0.083
252.0	0.085
252.5	0.080
253.0	0.080
253.5	0.084
254.0	0.082
254.5	0.081
255.0	0.080
255.5	0.081
256.0	0.081
256.5	0.080
257.0	0.079
257.5	0.079
258.0	0.079
258.5	0.079
259.0	0.080
259.5	0.080
260.0	0.081
260.5	0.081
261.0	0.080
261.5	0.080
262.0	0.081
262.5	0.081
263.0	0.081
263.5	0.081
264.0	0.081
264.5	0.082
265.0	0.082
265.5	0.082
266.0	0.082
266.5	0.082
267.0	0.082
267.5	0.082
268.0	0.082
268.5	0.083
269.0	0.083
269.5	0.084
270.0	0.084
270.5	0.084
271.0	0.084
271.5	0.084
272.0	0.085
272.5	0.085
273.0	0.084
273.5	0.085
274.0	0.085
274.5	0.086
275.0	0.086
275.5	0.086
276.0	0.086
276.5	0.086
277.0	0.086
277.5	0.086
278.0	0.087
278.5	0.087
279.0	0.087
279.5	0.087
280.0	0.088
280.5	0.089
281.0	0.089
281.5	0.089
282.0	0.089
282.5	0.089
283.0	0.089
283.5	0.089
284.0	0.090
284.5	0.090
285.0	0.090
285.5	0.090
286.0	0.090
286.5	0.091
287.0	0.091
287.5	0.091
288.0	0.091
288.5	0.091
289.0	0.091
289.5	0.092
290.0	0.092
290.5	0.092
291.0	0.093
291.5	0.093
292.0	0.093
292.5	0.093
293.0	0.093
293.5	0.093
294.0	0.094
294.5	0.094
295.0	0.094
295.5	0.094
296.0	0.094
296.5	0.094
297.0	0.095
297.5	0.095
298.0	0.095
298.5	0.095
299.0	0.095
299.5	0.095
300.0	0.096
300.5	0.096
301.0	0.096
301.5	0.096
302.0	0.096
302.5	0.097
303.0	0.097
303.5	0.097
304.0	0.097
304.5	0.097
305.0	0.098
305.5	0.098
306.0	0.098
306.5	0.098
307.0	0.098
307.5	0.098
308.0	0.098
308.5	0.098
309.0	0.099
309.5	0.099
310.0	0.099
310.5	0.099
311.0	0.099
311.5	0.099
312.0	0.099
312.5	0.099
313.0	0.099
313.5	0.099
314.0	0.099
314.5	0.099
315.0	0.099
315.5	0.100
316.0	0.100
316.5	0.100
317.0	0.100
317.5	0.100
318.0	0.101
318.5	0.101
319.0	0.101
319.5	0.101
320.0	0.101
320.5	0.101
321.0	0.101
321.5	0.101
322.0	0.101
322.5	0.101
323.0	0.102
323.5	0.102
324.0	0.102
324.5	0.102
325.0	0.102
325.5	0.102
326.0	0.102
326.5	0.102
327.0	0.102
327.5	0.102
328.0	0.102
328.5	0.102
329.0	0.103
329.5	0.103
330.0	0.103
330.5	0.103
331.0	0.103
331.5	0.103
332.0	0.103
332.5	0.103
333.0	0.103
333.5	0.103
334.0	0.103
334.5	0.103
335.0	0.104
335.5	0.104
336.0	0.104
336.5	0.104
337.0	0.105
337.5	0.104
338.0	0.105
338.5	0.105
339.0	0.105
339.5	0.105
340.0	0.105
340.5	0.105
341.0	0.105
341.5	0.105
342.0	0.105
342.5	0.105
343.0	0.105
343.5	0.105
344.0	0.105
344.5	0.105
345.0	0.105
345.5	0.105
346.0	0.105
346.5	0.105
347.0	0.105
347.5	0.105
348.0	0.106
348.5	0.105
349.0	0.105
349.5	0.106
350.0	0.106
350.5	0.106
351.0	0.106
351.5	0.106
352.0	0.106
352.5	0.106
353.0	0.106
353.5	0.106
354.0	0.106
354.5	0.106
355.0	0.106
355.5	0.106
356.0	0.106
356.5	0.106
357.0	0.107
357.5	0.107
358.0	0.107
358.5	0.107
359.0	0.107
359.5	0.107
360.0	0.107
360.5	0.107
361.0	0.107
361.5	0.107
362.0	0.108
362.5	0.108
363.0	0.108
363.5	0.108
364.0	0.108
364.5	0.108
365.0	0.108
365.5	0.108
366.0	0.109
366.5	0.109
367.0	0.109
367.5	0.109
368.0	0.110
368.5	0.110
369.0	0.110
369.5	0.110
370.0	0.110
370.5	0.110
371.0	0.110
371.5	0.110
372.0	0.111
372.5	0.111
373.0	0.111
373.5	0.111
374.0	0.111
374.5	0.111
375.0	0.111
375.5	0.111
376.0	0.112
376.5	0.112
377.0	0.112
377.5	0.112
378.0	0.112
378.5	0.112
379.0	0.112
379.5	0.113
380.0	0.113
380.5	0.113
381.0	0.113
381.5	0.113
382.0	0.113
382.5	0.113
383.0	0.113
383.5	0.113
384.0	0.113
384.5	0.114
385.0	0.114
385.5	0.114
386.0	0.114
386.5	0.114
387.0	0.114
387.5	0.114
388.0	0.114
388.5	0.114
389.0	0.114
389.5	0.114
390.0	0.114
390.5	0.114
391.0	0.115
391.5	0.115
392.0	0.115
392.5	0.115
393.0	0.115
393.5	0.115
394.0	0.115
394.5	0.115
395.0	0.115
395.5	0.115
396.0	0.115
396.5	0.116
397.0	0.116
397.5	0.116
398.0	0.116
398.5	0.116
399.0	0.116
399.5	0.116
400.0	0.116
400.5	0.116
401.0	0.116
401.5	0.117
402.0	0.117
402.5	0.117
403.0	0.117
403.5	0.117
404.0	0.117
404.5	0.117
405.0	0.117
405.5	0.117
406.0	0.118
406.5	0.118
407.0	0.118
407.5	0.118
408.0	0.118
408.5	0.118
409.0	0.118
409.5	0.118
410.0	0.119
410.5	0.119
411.0	0.119
411.5	0.119
412.0	0.119
412.5	0.119
413.0	0.119
413.5	0.119
414.0	0.119
414.5	0.119
415.0	0.120
415.5	0.120
416.0	0.120
416.5	0.120
417.0	0.120
417.5	0.120
418.0	0.120
418.5	0.120
419.0	0.120
419.5	0.120
420.0	0.120
420.5	0.120
421.0	0.120
421.5	0.120
422.0	0.121
422.5	0.121
423.0	0.121
423.5	0.121
424.0	0.121
424.5	0.121
425.0	0.121
425.5	0.121
426.0	0.121
426.5	0.121
427.0	0.122
427.5	0.122
428.0	0.122
428.5	0.122
429.0	0.122
429.5	0.123
430.0	0.123
430.5	0.123
431.0	0.123
431.5	0.123
432.0	0.124
432.5	0.124
433.0	0.124
433.5	0.124
434.0	0.124
434.5	0.124
435.0	0.124
435.5	0.125
436.0	0.125
436.5	0.125
437.0	0.125
437.5	0.125
438.0	0.125
438.5	0.125
439.0	0.125
439.5	0.125
440.0	0.126
440.5	0.126
441.0	0.126
441.5	0.126
442.0	0.126
442.5	0.126
443.0	0.126
443.5	0.126
444.0	0.126
444.5	0.126
445.0	0.127
445.5	0.127
446.0	0.127
446.5	0.127
447.0	0.127
447.5	0.127
448.0	0.127
448.5	0.127
449.0	0.127
449.5	0.128
450.0	0.128
450.5	0.128
451.0	0.128
451.5	0.128
452.0	0.128
452.5	0.128
453.0	0.128
453.5	0.129
454.0	0.129
454.5	0.129
455.0	0.129
455.5	0.129
456.0	0.129
456.5	0.129
457.0	0.129
457.5	0.129
458.0	0.130
458.5	0.130
459.0	0.130
459.5	0.130
460.0	0.130
460.5	0.130
461.0	0.130
461.5	0.130
462.0	0.130
462.5	0.130
463.0	0.130
463.5	0.130
464.0	0.130
464.5	0.131
465.0	0.131
465.5	0.131
466.0	0.131
466.5	0.131
467.0	0.131
467.5	0.131
468.0	0.131
468.5	0.132
469.0	0.132
469.5	0.132
470.0	0.132
470.5	0.132
471.0	0.132
471.5	0.132
472.0	0.132
472.5	0.132
473.0	0.133
473.5	0.133
474.0	0.133
474.5	0.133
475.0	0.133
475.5	0.133
476.0	0.133
476.5	0.133
477.0	0.134
477.5	0.134
478.0	0.134
478.5	0.134
479.0	0.134
479.5	0.134
480.0	0.134
480.5	0.134
481.0	0.134
481.5	0.134
482.0	0.134
482.5	0.134
483.0	0.134
483.5	0.135
484.0	0.135
484.5	0.135
485.0	0.135
485.5	0.135
486.0	0.135
486.5	0.135
487.0	0.135
487.5	0.135
488.0	0.135
488.5	0.135
489.0	0.135
489.5	0.136
490.0	0.136
490.5	0.136
491.0	0.136
491.5	0.136
492.0	0.136
492.5	0.137
493.0	0.137
493.5	0.137
494.0	0.137
494.5	0.137
495.0	0.137
495.5	0.137
496.0	0.137
496.5	0.138
497.0	0.138
497.5	0.138
498.0	0.138
498.5	0.138
499.0	0.138
499.5	0.138
500.0	0.138
500.5	0.138
501.0	0.138
501.5	0.138
502.0	0.139
502.5	0.139
503.0	0.139
503.5	0.139
504.0	0.139
504.5	0.139
505.0	0.140
505.5	0.140
506.0	0.140
506.5	0.140
507.0	0.140
507.5	0.140
508.0	0.140
508.5	0.141
509.0	0.141
509.5	0.141
510.0	0.141
510.5	0.141
511.0	0.141
511.5	0.141
512.0	0.141
512.5	0.141
513.0	0.141
513.5	0.141
514.0	0.141
514.5	0.141
515.0	0.141
515.5	0.141
516.0	0.142
516.5	0.142
517.0	0.142
517.5	0.142
518.0	0.142
518.5	0.142
519.0	0.142
519.5	0.142
520.0	0.142
520.5	0.143
521.0	0.143
521.5	0.143
522.0	0.143
522.5	0.143
523.0	0.143
523.5	0.143
524.0	0.143
524.5	0.143
525.0	0.144
525.5	0.143
526.0	0.143
526.5	0.143
527.0	0.143
527.5	0.143
528.0	0.143
528.5	0.143
529.0	0.143
529.5	0.143
530.0	0.144
530.5	0.144
531.0	0.144
531.5	0.144
532.0	0.144
532.5	0.144
533.0	0.144
533.5	0.145
534.0	0.145
534.5	0.145
535.0	0.145
535.5	0.145
536.0	0.145
536.5	0.145
537.0	0.145
537.5	0.145
538.0	0.145
538.5	0.145
539.0	0.146
539.5	0.146
540.0	0.146
540.5	0.145
541.0	0.146
541.5	0.146
542.0	0.146
542.5	0.146
543.0	0.146
543.5	0.146
544.0	0.146
544.5	0.146
545.0	0.147
545.5	0.147
546.0	0.147
546.5	0.147
547.0	0.147
547.5	0.147
548.0	0.148
548.5	0.148
549.0	0.148
549.5	0.148
550.0	0.148
550.5	0.148
551.0	0.148
551.5	0.149
552.0	0.149
552.5	0.149
553.0	0.149
553.5	0.149
554.0	0.149
554.5	0.149
555.0	0.149
555.5	0.149
556.0	0.149
556.5	0.150
557.0	0.149
557.5	0.149
558.0	0.149
558.5	0.150
559.0	0.150
559.5	0.150
560.0	0.150
560.5	0.150
561.0	0.150
561.5	0.150
562.0	0.150
562.5	0.150
563.0	0.150
563.5	0.150
564.0	0.150
564.5	0.150
565.0	0.150
565.5	0.150
566.0	0.151
566.5	0.151
567.0	0.150
567.5	0.151
568.0	0.150
568.5	0.150
569.0	0.150
569.5	0.150
570.0	0.150
570.5	0.150
571.0	0.151
571.5	0.151
572.0	0.151
572.5	0.151
573.0	0.151
573.5	0.151
574.0	0.151
574.5	0.151
575.0	0.152
575.5	0.152
576.0	0.152
576.5	0.152
577.0	0.152
577.5	0.152
578.0	0.152
578.5	0.152
579.0	0.152
579.5	0.152
580.0	0.152
580.5	0.152
581.0	0.152
581.5	0.152
582.0	0.152
582.5	0.153
583.0	0.153
583.5	0.153
584.0	0.153
584.5	0.153
585.0	0.153
585.5	0.153
586.0	0.153
586.5	0.153
587.0	0.153
587.5	0.153
588.0	0.153
588.5	0.153
589.0	0.154
589.5	0.154
590.0	0.154
590.5	0.153
591.0	0.153
591.5	0.153
592.0	0.153
592.5	0.153
593.0	0.153
593.5	0.153
594.0	0.154
594.5	0.154
595.0	0.154
595.5	0.154
596.0	0.154
596.5	0.154
597.0	0.154
597.5	0.154
598.0	0.154
598.5	0.154
599.0	0.154
599.5	0.155
600.0	0.155
600.5	0.155
601.0	0.155
601.5	0.155
602.0	0.155
602.5	0.155
603.0	0.155
603.5	0.155
604.0	0.155
604.5	0.155
605.0	0.155
605.5	0.155
606.0	0.155
606.5	0.156
607.0	0.155
607.5	0.155
608.0	0.155
608.5	0.155
609.0	0.155
609.5	0.155
610.0	0.156
610.5	0.156
611.0	0.156
611.5	0.156
612.0	0.156
612.5	0.156
613.0	0.156
613.5	0.156
614.0	0.156
614.5	0.156
615.0	0.156
615.5	0.156
616.0	0.156
616.5	0.157
617.0	0.157
617.5	0.157
618.0	0.157
618.5	0.157
619.0	0.157
619.5	0.157
620.0	0.157
620.5	0.158
621.0	0.157
621.5	0.157
622.0	0.158
622.5	0.158
623.0	0.158
623.5	0.158
624.0	0.158
624.5	0.158
625.0	0.159
625.5	0.158
626.0	0.158
626.5	0.158
627.0	0.158
627.5	0.158
628.0	0.159
628.5	0.159
629.0	0.159
629.5	0.159
630.0	0.159
630.5	0.159
631.0	0.159
631.5	0.158
632.0	0.158
632.5	0.159
633.0	0.159
633.5	0.159
634.0	0.159
634.5	0.159
635.0	0.159
635.5	0.159
636.0	0.158
636.5	0.159
637.0	0.158
637.5	0.159
638.0	0.159
638.5	0.159
639.0	0.159
639.5	0.159
640.0	0.159
640.5	0.159
641.0	0.159
641.5	0.160
642.0	0.160
642.5	0.160
643.0	0.160
643.5	0.160
644.0	0.160
644.5	0.160
645.0	0.161
645.5	0.161
646.0	0.161
646.5	0.161
647.0	0.161
647.5	0.161
648.0	0.160
648.5	0.160
649.0	0.160
649.5	0.160
650.0	0.160
650.5	0.161
651.0	0.161
651.5	0.160
652.0	0.160
652.5	0.160
653.0	0.160
653.5	0.160
654.0	0.160
654.5	0.160
655.0	0.160
655.5	0.160
656.0	0.160
656.5	0.160
657.0	0.161
657.5	0.161
658.0	0.161
658.5	0.161
659.0	0.161
659.5	0.161
660.0	0.161
660.5	0.162
661.0	0.162
661.5	0.162
662.0	0.162
662.5	0.162
663.0	0.162
663.5	0.162
664.0	0.162
664.5	0.162
665.0	0.162
665.5	0.162
666.0	0.161
666.5	0.161
667.0	0.162
667.5	0.162
668.0	0.162
668.5	0.162
669.0	0.162
669.5	0.162
670.0	0.162
670.5	0.162
671.0	0.162
671.5	0.162
672.0	0.162
672.5	0.162
673.0	0.162
673.5	0.162
674.0	0.162
674.5	0.162
675.0	0.162
675.5	0.162
676.0	0.162
676.5	0.162
677.0	0.163
677.5	0.163
678.0	0.163
678.5	0.163
679.0	0.163
679.5	0.163
680.0	0.163
680.5	0.163
681.0	0.163
681.5	0.163
682.0	0.163
682.5	0.163
683.0	0.164
683.5	0.164
684.0	0.164
684.5	0.163
685.0	0.163
685.5	0.163
686.0	0.163
686.5	0.163
687.0	0.163
687.5	0.163
688.0	0.163
688.5	0.163
689.0	0.163
689.5	0.163
690.0	0.163
690.5	0.162
691.0	0.162
691.5	0.162
692.0	0.162
692.5	0.163
693.0	0.163
693.5	0.163
694.0	0.163
694.5	0.163
695.0	0.163
695.5	0.164
696.0	0.164
696.5	0.164
697.0	0.164
697.5	0.164
698.0	0.164
698.5	0.164
699.0	0.164
699.5	0.164
700.0	0.164



2/2/2021 9:37 AM
Wavelength (nm)	10mm Absorbance
//WLCalib: Shift 	0.01000	
//WLCalib: 261S 	-0.50000	
//WLCalib: 362S 	-0.51000	
//WLCalib: 484S 	-0.29000	
//WLCalib: 529S 	-0.04000	
//WLCalib: 823S 	-0.52000	
//QSpecEnd: 
250.0	0.084
250.5	0.108
251.0	0.135
251.5	0.143
252.0	0.158
252.5	0.166
253.0	0.168
253.5	0.178
254.0	0.181
254.5	0.181
255.0	0.183
255.5	0.184
256.0	0.184
256.5	0.182
257.0	0.182
257.5	0.183
258.0	0.183
258.5	0.183
259.0	0.184
259.5	0.184
260.0	0.184
260.5	0.184
261.0	0.184
261.5	0.184
262.0	0.184
262.5	0.184
263.0	0.184
263.5	0.184
264.0	0.185
264.5	0.186
265.0	0.186
265.5	0.185
266.0	0.185
266.5	0.185
267.0	0.185
267.5	0.185
268.0	0.186
268.5	0.186
269.0	0.187
269.5	0.187
270.0	0.188
270.5	0.188
271.0	0.188
271.5	0.189
272.0	0.189
272.5	0.189
273.0	0.189
273.5	0.190
274.0	0.189
274.5	0.190
275.0	0.190
275.5	0.190
276.0	0.191
276.5	0.190
277.0	0.191
277.5	0.191
278.0	0.191
278.5	0.191
279.0	0.192
279.5	0.192
280.0	0.192
280.5	0.193
281.0	0.193
281.5	0.194
282.0	0.194
282.5	0.194
283.0	0.194
283.5	0.195
284.0	0.195
284.5	0.195
285.0	0.196
285.5	0.196
286.0	0.196
286.5	0.196
287.0	0.197
287.5	0.197
288.0	0.197
288.5	0.197
289.0	0.198
289.5	0.198
290.0	0.198
290.5	0.198
291.0	0.199
291.5	0.199
292.0	0.199
292.5	0.200
293.0	0.200
293.5	0.200
294.0	0.200
294.5	0.200
295.0	0.201
295.5	0.201
296.0	0.201
296.5	0.201
297.0	0.201
297.5	0.201
298.0	0.202
298.5	0.202
299.0	0.202
299.5	0.202
300.0	0.202
300.5	0.202
301.0	0.202
301.5	0.203
302.0	0.203
302.5	0.203
303.0	0.204
303.5	0.204
304.0	0.204
304.5	0.204
305.0	0.204
305.5	0.204
306.0	0.204
306.5	0.205
307.0	0.205
307.5	0.205
308.0	0.205
308.5	0.205
309.0	0.205
309.5	0.205
310.0	0.205
310.5	0.206
311.0	0.206
311.5	0.206
312.0	0.206
312.5	0.206
313.0	0.206
313.5	0.206
314.0	0.206
314.5	0.207
315.0	0.207
315.5	0.207
316.0	0.207
316.5	0.207
317.0	0.208
317.5	0.208
318.0	0.208
318.5	0.208
319.0	0.208
319.5	0.209
320.0	0.209
320.5	0.209
321.0	0.209
321.5	0.209
322.0	0.209
322.5	0.209
323.0	0.209
323.5	0.209
324.0	0.210
324.5	0.210
325.0	0.210
325.5	0.210
326.0	0.210
326.5	0.210
327.0	0.210
327.5	0.210
328.0	0.210
328.5	0.210
329.0	0.210
329.5	0.210
330.0	0.210
330.5	0.210
331.0	0.210
331.5	0.210
332.0	0.210
332.5	0.210
333.0	0.211
333.5	0.211
334.0	0.211
334.5	0.211
335.0	0.211
335.5	0.211
336.0	0.211
336.5	0.211
337.0	0.212
337.5	0.212
338.0	0.212
338.5	0.212
339.0	0.212
339.5	0.212
340.0	0.213
340.5	0.212
341.0	0.213
341.5	0.212
342.0	0.213
342.5	0.213
343.0	0.213
343.5	0.213
344.0	0.213
344.5	0.213
345.0	0.213
345.5	0.213
346.0	0.213
346.5	0.213
347.0	0.213
347.5	0.213
348.0	0.213
348.5	0.214
349.0	0.214
349.5	0.214
350.0	0.214
350.5	0.214
351.0	0.214
351.5	0.214
352.0	0.214
352.5	0.214
353.0	0.214
353.5	0.214
354.0	0.214
354.5	0.214
355.0	0.214
355.5	0.214
356.0	0.214
356.5	0.215
357.0	0.215
357.5	0.215
358.0	0.215
358.5	0.215
359.0	0.215
359.5	0.215
360.0	0.215
360.5	0.215
361.0	0.215
361.5	0.216
362.0	0.216
362.5	0.216
363.0	0.216
363.5	0.217
364.0	0.217
364.5	0.217
365.0	0.217
365.5	0.218
366.0	0.218
366.5	0.218
367.0	0.219
367.5	0.219
368.0	0.219
368.5	0.219
369.0	0.219
369.5	0.220
370.0	0.220
370.5	0.220
371.0	0.220
371.5	0.220
372.0	0.220
372.5	0.220
373.0	0.221
373.5	0.221
374.0	0.221
374.5	0.221
375.0	0.221
375.5	0.222
376.0	0.222
376.5	0.222
377.0	0.222
377.5	0.222
378.0	0.222
378.5	0.222
379.0	0.223
379.5	0.223
380.0	0.223
380.5	0.223
381.0	0.223
381.5	0.223
382.0	0.223
382.5	0.223
383.0	0.223
383.5	0.223
384.0	0.223
384.5	0.224
385.0	0.224
385.5	0.224
386.0	0.225
386.5	0.225
387.0	0.225
387.5	0.225
388.0	0.225
388.5	0.225
389.0	0.225
389.5	0.225
390.0	0.225
390.5	0.226
391.0	0.226
391.5	0.226
392.0	0.226
392.5	0.226
393.0	0.226
393.5	0.226
394.0	0.226
394.5	0.226
395.0	0.227
395.5	0.227
396.0	0.227
396.5	0.227
397.0	0.227
397.5	0.227
398.0	0.227
398.5	0.227
399.0	0.228
399.5	0.228
400.0	0.228
400.5	0.228
401.0	0.228
401.5	0.228
402.0	0.229
402.5	0.229
403.0	0.229
403.5	0.229
404.0	0.229
404.5	0.230
405.0	0.230
405.5	0.230
406.0	0.230
406.5	0.230
407.0	0.230
407.5	0.231
408.0	0.231
408.5	0.231
409.0	0.231
409.5	0.231
410.0	0.231
410.5	0.231
411.0	0.231
411.5	0.232
412.0	0.232
412.5	0.232
413.0	0.232
413.5	0.232
414.0	0.232
414.5	0.232
415.0	0.232
415.5	0.233
416.0	0.233
416.5	0.233
417.0	0.233
417.5	0.233
418.0	0.233
418.5	0.234
419.0	0.234
419.5	0.234
420.0	0.234
420.5	0.234
421.0	0.234
421.5	0.234
422.0	0.234
422.5	0.234
423.0	0.235
423.5	0.235
424.0	0.235
424.5	0.235
425.0	0.235
425.5	0.235
426.0	0.236
426.5	0.236
427.0	0.236
427.5	0.236
428.0	0.237
428.5	0.237
429.0	0.237
429.5	0.237
430.0	0.238
430.5	0.238
431.0	0.238
431.5	0.239
432.0	0.239
432.5	0.239
433.0	0.239
433.5	0.239
434.0	0.240
434.5	0.240
435.0	0.240
435.5	0.240
436.0	0.241
436.5	0.241
437.0	0.241
437.5	0.241
438.0	0.241
438.5	0.241
439.0	0.241
439.5	0.242
440.0	0.242
440.5	0.242
441.0	0.243
441.5	0.243
442.0	0.243
442.5	0.243
443.0	0.243
443.5	0.244
444.0	0.244
444.5	0.244
445.0	0.244
445.5	0.244
446.0	0.245
446.5	0.245
447.0	0.245
447.5	0.245
448.0	0.246
448.5	0.246
449.0	0.246
449.5	0.246
450.0	0.246
450.5	0.246
451.0	0.246
451.5	0.247
452.0	0.247
452.5	0.247
453.0	0.247
453.5	0.248
454.0	0.248
454.5	0.248
455.0	0.248
455.5	0.248
456.0	0.248
456.5	0.248
457.0	0.249
457.5	0.249
458.0	0.249
458.5	0.249
459.0	0.249
459.5	0.249
460.0	0.250
460.5	0.250
461.0	0.250
461.5	0.250
462.0	0.250
462.5	0.250
463.0	0.251
463.5	0.251
464.0	0.251
464.5	0.251
465.0	0.252
465.5	0.252
466.0	0.252
466.5	0.252
467.0	0.252
467.5	0.253
468.0	0.253
468.5	0.253
469.0	0.253
469.5	0.253
470.0	0.254
470.5	0.254
471.0	0.254
471.5	0.254
472.0	0.255
472.5	0.255
473.0	0.255
473.5	0.255
474.0	0.256
474.5	0.256
475.0	0.256
475.5	0.256
476.0	0.256
476.5	0.257
477.0	0.257
477.5	0.257
478.0	0.257
478.5	0.257
479.0	0.257
479.5	0.257
480.0	0.257
480.5	0.258
481.0	0.258
481.5	0.258
482.0	0.258
482.5	0.258
483.0	0.258
483.5	0.258
484.0	0.258
484.5	0.258
485.0	0.259
485.5	0.259
486.0	0.259
486.5	0.259
487.0	0.259
487.5	0.259
488.0	0.259
488.5	0.259
489.0	0.260
489.5	0.260
490.0	0.261
490.5	0.261
491.0	0.261
491.5	0.261
492.0	0.262
492.5	0.262
493.0	0.262
493.5	0.262
494.0	0.262
494.5	0.263
495.0	0.263
495.5	0.264
496.0	0.264
496.5	0.264
497.0	0.265
497.5	0.265
498.0	0.265
498.5	0.265
499.0	0.266
499.5	0.266
500.0	0.266
500.5	0.267
501.0	0.267
501.5	0.267
502.0	0.268
502.5	0.268
503.0	0.268
503.5	0.269
504.0	0.269
504.5	0.269
505.0	0.269
505.5	0.270
506.0	0.270
506.5	0.270
507.0	0.270
507.5	0.271
508.0	0.271
508.5	0.271
509.0	0.271
509.5	0.271
510.0	0.271
510.5	0.271
511.0	0.271
511.5	0.272
512.0	0.272
512.5	0.272
513.0	0.272
513.5	0.272
514.0	0.272
514.5	0.272
515.0	0.273
515.5	0.273
516.0	0.273
516.5	0.273
517.0	0.274
517.5	0.274
518.0	0.274
518.5	0.274
519.0	0.274
519.5	0.274
520.0	0.275
520.5	0.275
521.0	0.275
521.5	0.276
522.0	0.276
522.5	0.276
523.0	0.276
523.5	0.276
524.0	0.276
524.5	0.276
525.0	0.276
525.5	0.276
526.0	0.277
526.5	0.277
527.0	0.277
527.5	0.277
528.0	0.277
528.5	0.277
529.0	0.277
529.5	0.277
530.0	0.277
530.5	0.278
531.0	0.278
531.5	0.278
532.0	0.278
532.5	0.278
533.0	0.279
533.5	0.279
534.0	0.279
534.5	0.279
535.0	0.280
535.5	0.280
536.0	0.280
536.5	0.280
537.0	0.280
537.5	0.281
538.0	0.281
538.5	0.281
539.0	0.281
539.5	0.281
540.0	0.281
540.5	0.282
541.0	0.282
541.5	0.282
542.0	0.282
542.5	0.282
543.0	0.282
543.5	0.282
544.0	0.283
544.5	0.283
545.0	0.283
545.5	0.283
546.0	0.284
546.5	0.284
547.0	0.284
547.5	0.285
548.0	0.285
548.5	0.285
549.0	0.286
549.5	0.286
550.0	0.286
550.5	0.286
551.0	0.286
551.5	0.287
552.0	0.287
552.5	0.287
553.0	0.288
553.5	0.288
554.0	0.288
554.5	0.288
555.0	0.288
555.5	0.288
556.0	0.289
556.5	0.289
557.0	0.289
557.5	0.289
558.0	0.289
558.5	0.289
559.0	0.289
559.5	0.290
560.0	0.290
560.5	0.290
561.0	0.289
561.5	0.290
562.0	0.290
562.5	0.290
563.0	0.291
563.5	0.291
564.0	0.291
564.5	0.291
565.0	0.291
565.5	0.291
566.0	0.291
566.5	0.291
567.0	0.291
567.5	0.291
568.0	0.291
568.5	0.291
569.0	0.292
569.5	0.291
570.0	0.292
570.5	0.291
571.0	0.291
571.5	0.292
572.0	0.292
572.5	0.292
573.0	0.292
573.5	0.293
574.0	0.293
574.5	0.293
575.0	0.293
575.5	0.294
576.0	0.294
576.5	0.294
577.0	0.294
577.5	0.295
578.0	0.295
578.5	0.295
579.0	0.295
579.5	0.295
580.0	0.296
580.5	0.296
581.0	0.296
581.5	0.296
582.0	0.296
582.5	0.297
583.0	0.297
583.5	0.297
584.0	0.297
584.5	0.297
585.0	0.297
585.5	0.298
586.0	0.298
586.5	0.298
587.0	0.298
587.5	0.299
588.0	0.299
588.5	0.299
589.0	0.299
589.5	0.299
590.0	0.299
590.5	0.299
591.0	0.299
591.5	0.299
592.0	0.299
592.5	0.299
593.0	0.299
593.5	0.299
594.0	0.299
594.5	0.299
595.0	0.299
595.5	0.299
596.0	0.300
596.5	0.300
597.0	0.300
597.5	0.300
598.0	0.300
598.5	0.300
599.0	0.300
599.5	0.301
600.0	0.301
600.5	0.301
601.0	0.302
601.5	0.302
602.0	0.302
602.5	0.302
603.0	0.302
603.5	0.302
604.0	0.302
604.5	0.302
605.0	0.303
605.5	0.303
606.0	0.303
606.5	0.303
607.0	0.303
607.5	0.304
608.0	0.304
608.5	0.304
609.0	0.304
609.5	0.304
610.0	0.304
610.5	0.304
611.0	0.304
611.5	0.305
612.0	0.305
612.5	0.305
613.0	0.305
613.5	0.305
614.0	0.305
614.5	0.305
615.0	0.306
615.5	0.306
616.0	0.305
616.5	0.306
617.0	0.306
617.5	0.306
618.0	0.306
618.5	0.307
619.0	0.307
619.5	0.307
620.0	0.307
620.5	0.307
621.0	0.307
621.5	0.307
622.0	0.307
622.5	0.308
623.0	0.308
623.5	0.308
624.0	0.308
624.5	0.308
625.0	0.308
625.5	0.308
626.0	0.308
626.5	0.308
627.0	0.308
627.5	0.309
628.0	0.309
628.5	0.309
629.0	0.310
629.5	0.310
630.0	0.310
630.5	0.310
631.0	0.310
631.5	0.310
632.0	0.310
632.5	0.311
633.0	0.311
633.5	0.311
634.0	0.312
634.5	0.312
635.0	0.312
635.5	0.312
636.0	0.312
636.5	0.312
637.0	0.312
637.5	0.312
638.0	0.312
638.5	0.312
639.0	0.313
639.5	0.313
640.0	0.313
640.5	0.313
641.0	0.313
641.5	0.313
642.0	0.313
642.5	0.313
643.0	0.313
643.5	0.313
644.0	0.314
644.5	0.314
645.0	0.313
645.5	0.314
646.0	0.314
646.5	0.314
647.0	0.314
647.5	0.314
648.0	0.314
648.5	0.314
649.0	0.315
649.5	0.315
650.0	0.315
650.5	0.315
651.0	0.315
651.5	0.316
652.0	0.316
652.5	0.316
653.0	0.316
653.5	0.316
654.0	0.316
654.5	0.316
655.0	0.316
655.5	0.316
656.0	0.316
656.5	0.316
657.0	0.317
657.5	0.317
658.0	0.317
658.5	0.316
659.0	0.316
659.5	0.316
660.0	0.316
660.5	0.317
661.0	0.317
661.5	0.317
662.0	0.317
662.5	0.317
663.0	0.317
663.5	0.317
664.0	0.317
664.5	0.318
665.0	0.318
665.5	0.318
666.0	0.318
666.5	0.318
667.0	0.318
667.5	0.318
668.0	0.318
668.5	0.318
669.0	0.318
669.5	0.318
670.0	0.318
670.5	0.319
671.0	0.319
671.5	0.319
672.0	0.319
672.5	0.319
673.0	0.319
673.5	0.319
674.0	0.319
674.5	0.320
675.0	0.320
675.5	0.320
676.0	0.320
676.5	0.320
677.0	0.320
677.5	0.320
678.0	0.320
678.5	0.320
679.0	0.321
679.5	0.321
680.0	0.321
680.5	0.321
681.0	0.321
681.5	0.322
682.0	0.322
682.5	0.322
683.0	0.323
683.5	0.323
684.0	0.323
684.5	0.323
685.0	0.323
685.5	0.323
686.0	0.323
686.5	0.323
687.0	0.323
687.5	0.323
688.0	0.323
688.5	0.323
689.0	0.324
689.5	0.323
690.0	0.323
690.5	0.323
691.0	0.323
691.5	0.324
692.0	0.324
692.5	0.324
693.0	0.324
693.5	0.325
694.0	0.324
694.5	0.324
695.0	0.325
695.5	0.325
696.0	0.325
696.5	0.325
697.0	0.325
697.5	0.325
698.0	0.324
698.5	0.325
699.0	0.325
699.5	0.325
700.0	0.325



2/2/2021 9:40 AM
Wavelength (nm)	10mm Absorbance
//WLCalib: Shift 	0.01000	
//WLCalib: 261S 	-0.50000	
//WLCalib: 362S 	-0.51000	
//WLCalib: 484S 	-0.29000	
//WLCalib: 529S 	-0.04000	
//WLCalib: 823S 	-0.52000	
//QSpecEnd: 
250.0	0.126
250.5	0.159
251.0	0.188
251.5	0.206
252.0	0.236
252.5	0.252
253.0	0.262
253.5	0.266
254.0	0.273
254.5	0.278
255.0	0.285
255.5	0.287
256.0	0.286
256.5	0.286
257.0	0.287
257.5	0.288
258.0	0.288
258.5	0.287
259.0	0.288
259.5	0.287
260.0	0.287
260.5	0.288
261.0	0.288
261.5	0.289
262.0	0.289
262.5	0.288
263.0	0.289
263.5	0.289
264.0	0.290
264.5	0.291
265.0	0.292
265.5	0.293
266.0	0.294
266.5	0.295
267.0	0.296
267.5	0.296
268.0	0.296
268.5	0.296
269.0	0.296
269.5	0.297
270.0	0.298
270.5	0.298
271.0	0.298
271.5	0.299
272.0	0.299
272.5	0.300
273.0	0.299
273.5	0.299
274.0	0.299
274.5	0.299
275.0	0.300
275.5	0.300
276.0	0.301
276.5	0.302
277.0	0.303
277.5	0.302
278.0	0.303
278.5	0.303
279.0	0.304
279.5	0.304
280.0	0.304
280.5	0.305
281.0	0.305
281.5	0.306
282.0	0.306
282.5	0.306
283.0	0.306
283.5	0.306
284.0	0.306
284.5	0.306
285.0	0.307
285.5	0.307
286.0	0.308
286.5	0.308
287.0	0.308
287.5	0.309
288.0	0.309
288.5	0.309
289.0	0.309
289.5	0.309
290.0	0.310
290.5	0.311
291.0	0.311
291.5	0.312
292.0	0.312
292.5	0.313
293.0	0.313
293.5	0.313
294.0	0.314
294.5	0.314
295.0	0.314
295.5	0.315
296.0	0.315
296.5	0.316
297.0	0.316
297.5	0.316
298.0	0.317
298.5	0.317
299.0	0.317
299.5	0.317
300.0	0.318
300.5	0.318
301.0	0.318
301.5	0.318
302.0	0.319
302.5	0.319
303.0	0.319
303.5	0.320
304.0	0.320
304.5	0.320
305.0	0.320
305.5	0.320
306.0	0.321
306.5	0.321
307.0	0.321
307.5	0.321
308.0	0.321
308.5	0.321
309.0	0.321
309.5	0.322
310.0	0.322
310.5	0.322
311.0	0.322
311.5	0.323
312.0	0.323
312.5	0.323
313.0	0.323
313.5	0.323
314.0	0.324
314.5	0.324
315.0	0.324
315.5	0.324
316.0	0.325
316.5	0.325
317.0	0.325
317.5	0.326
318.0	0.326
318.5	0.326
319.0	0.326
319.5	0.327
320.0	0.327
320.5	0.327
321.0	0.327
321.5	0.328
322.0	0.328
322.5	0.328
323.0	0.328
323.5	0.328
324.0	0.329
324.5	0.329
325.0	0.329
325.5	0.329
326.0	0.329
326.5	0.329
327.0	0.330
327.5	0.330
328.0	0.330
328.5	0.331
329.0	0.331
329.5	0.331
330.0	0.331
330.5	0.332
331.0	0.332
331.5	0.332
332.0	0.332
332.5	0.333
333.0	0.333
333.5	0.333
334.0	0.333
334.5	0.333
335.0	0.334
335.5	0.334
336.0	0.334
336.5	0.334
337.0	0.334
337.5	0.334
338.0	0.334
338.5	0.334
339.0	0.335
339.5	0.335
340.0	0.335
340.5	0.335
341.0	0.336
341.5	0.335
342.0	0.335
342.5	0.336
343.0	0.336
343.5	0.336
344.0	0.336
344.5	0.336
345.0	0.336
345.5	0.336
346.0	0.337
346.5	0.337
347.0	0.337
347.5	0.337
348.0	0.337
348.5	0.337
349.0	0.338
349.5	0.338
350.0	0.338
350.5	0.339
351.0	0.339
351.5	0.339
352.0	0.339
352.5	0.339
353.0	0.340
353.5	0.340
354.0	0.340
354.5	0.340
355.0	0.340
355.5	0.341
356.0	0.341
356.5	0.341
357.0	0.341
357.5	0.342
358.0	0.342
358.5	0.342
359.0	0.342
359.5	0.342
360.0	0.342
360.5	0.343
361.0	0.343
361.5	0.343
362.0	0.343
362.5	0.343
363.0	0.344
363.5	0.344
364.0	0.344
364.5	0.344
365.0	0.344
365.5	0.345
366.0	0.345
366.5	0.346
367.0	0.346
367.5	0.346
368.0	0.346
368.5	0.347
369.0	0.347
369.5	0.347
370.0	0.348
370.5	0.348
371.0	0.348
371.5	0.348
372.0	0.349
372.5	0.349
373.0	0.349
373.5	0.349
374.0	0.350
374.5	0.350
375.0	0.350
375.5	0.350
376.0	0.350
376.5	0.350
377.0	0.350
377.5	0.351
378.0	0.351
378.5	0.351
379.0	0.352
379.5	0.352
380.0	0.352
380.5	0.352
381.0	0.352
381.5	0.353
382.0	0.353
382.5	0.353
383.0	0.353
383.5	0.353
384.0	0.354
384.5	0.354
385.0	0.354
385.5	0.354
386.0	0.354
386.5	0.355
387.0	0.355
387.5	0.355
388.0	0.355
388.5	0.355
389.0	0.355
389.5	0.355
390.0	0.356
390.5	0.356
391.0	0.356
391.5	0.357
392.0	0.357
392.5	0.357
393.0	0.357
393.5	0.357
394.0	0.358
394.5	0.358
395.0	0.358
395.5	0.358
396.0	0.358
396.5	0.358
397.0	0.359
397.5	0.359
398.0	0.359
398.5	0.359
399.0	0.359
399.5	0.359
400.0	0.360
400.5	0.360
401.0	0.360
401.5	0.360
402.0	0.361
402.5	0.361
403.0	0.361
403.5	0.361
404.0	0.361
404.5	0.362
405.0	0.362
405.5	0.362
406.0	0.362
406.5	0.362
407.0	0.362
407.5	0.363
408.0	0.363
408.5	0.363
409.0	0.363
409.5	0.363
410.0	0.363
410.5	0.364
411.0	0.364
411.5	0.364
412.0	0.365
412.5	0.365
413.0	0.365
413.5	0.365
414.0	0.366
414.5	0.366
415.0	0.366
415.5	0.366
416.0	0.367
416.5	0.367
417.0	0.367
417.5	0.367
418.0	0.367
418.5	0.367
419.0	0.367
419.5	0.367
420.0	0.367
420.5	0.367
421.0	0.367
421.5	0.368
422.0	0.368
422.5	0.368
423.0	0.368
423.5	0.368
424.0	0.369
424.5	0.369
425.0	0.369
425.5	0.370
426.0	0.370
426.5	0.371
427.0	0.371
427.5	0.371
428.0	0.372
428.5	0.372
429.0	0.373
429.5	0.373
430.0	0.373
430.5	0.374
431.0	0.374
431.5	0.374
432.0	0.375
432.5	0.375
433.0	0.375
433.5	0.376
434.0	0.376
434.5	0.376
435.0	0.377
435.5	0.377
436.0	0.378
436.5	0.378
437.0	0.378
437.5	0.378
438.0	0.379
438.5	0.379
439.0	0.379
439.5	0.379
440.0	0.380
440.5	0.380
441.0	0.380
441.5	0.381
442.0	0.381
442.5	0.381
443.0	0.381
443.5	0.381
444.0	0.381
444.5	0.382
445.0	0.382
445.5	0.382
446.0	0.382
446.5	0.383
447.0	0.383
447.5	0.383
448.0	0.383
448.5	0.383
449.0	0.384
449.5	0.384
450.0	0.384
450.5	0.385
451.0	0.385
451.5	0.385
452.0	0.386
452.5	0.386
453.0	0.386
453.5	0.387
454.0	0.387
454.5	0.387
455.0	0.387
455.5	0.387
456.0	0.388
456.5	0.388
457.0	0.388
457.5	0.388
458.0	0.388
458.5	0.388
459.0	0.388
459.5	0.388
460.0	0.389
460.5	0.389
461.0	0.389
461.5	0.389
462.0	0.390
462.5	0.390
463.0	0.390
463.5	0.391
464.0	0.391
464.5	0.391
465.0	0.392
465.5	0.392
466.0	0.392
466.5	0.393
467.0	0.393
467.5	0.393
468.0	0.394
468.5	0.394
469.0	0.394
469.5	0.395
470.0	0.395
470.5	0.395
471.0	0.395
471.5	0.396
472.0	0.396
472.5	0.396
473.0	0.397
473.5	0.397
474.0	0.397
474.5	0.398
475.0	0.398
475.5	0.398
476.0	0.398
476.5	0.399
477.0	0.399
477.5	0.399
478.0	0.399
478.5	0.400
479.0	0.400
479.5	0.400
480.0	0.400
480.5	0.399
481.0	0.400
481.5	0.400
482.0	0.400
482.5	0.399
483.0	0.400
483.5	0.400
484.0	0.400
484.5	0.400
485.0	0.400
485.5	0.400
486.0	0.400
486.5	0.400
487.0	0.400
487.5	0.400
488.0	0.401
488.5	0.401
489.0	0.402
489.5	0.402
490.0	0.403
490.5	0.403
491.0	0.403
491.5	0.404
492.0	0.404
492.5	0.405
493.0	0.405
493.5	0.406
494.0	0.406
494.5	0.407
495.0	0.407
495.5	0.407
496.0	0.408
496.5	0.408
497.0	0.409
497.5	0.409
498.0	0.409
498.5	0.410
499.0	0.410
499.5	0.410
500.0	0.411
500.5	0.411
501.0	0.412
501.5	0.412
502.0	0.412
502.5	0.413
503.0	0.413
503.5	0.413
504.0	0.414
504.5	0.414
505.0	0.414
505.5	0.415
506.0	0.415
506.5	0.415
507.0	0.416
507.5	0.416
508.0	0.416
508.5	0.416
509.0	0.417
509.5	0.417
510.0	0.417
510.5	0.417
511.0	0.417
511.5	0.418
512.0	0.418
512.5	0.418
513.0	0.419
513.5	0.419
514.0	0.419
514.5	0.419
515.0	0.420
515.5	0.420
516.0	0.420
516.5	0.420
517.0	0.421
517.5	0.421
518.0	0.421
518.5	0.422
519.0	0.422
519.5	0.422
520.0	0.422
520.5	0.422
521.0	0.422
521.5	0.423
522.0	0.423
522.5	0.423
523.0	0.423
523.5	0.423
524.0	0.423
524.5	0.423
525.0	0.423
525.5	0.424
526.0	0.424
526.5	0.424
527.0	0.424
527.5	0.424
528.0	0.424
528.5	0.424
529.0	0.424
529.5	0.424
530.0	0.424
530.5	0.424
531.0	0.425
531.5	0.425
532.0	0.425
532.5	0.425
533.0	0.426
533.5	0.426
534.0	0.426
534.5	0.427
535.0	0.427
535.5	0.428
536.0	0.428
536.5	0.428
537.0	0.429
537.5	0.429
538.0	0.430
538.5	0.430
539.0	0.430
539.5	0.430
540.0	0.431
540.5	0.431
541.0	0.431
541.5	0.431
542.0	0.431
542.5	0.432
543.0	0.432
543.5	0.432
544.0	0.432
544.5	0.432
545.0	0.432
545.5	0.433
546.0	0.433
546.5	0.433
547.0	0.434
547.5	0.434
548.0	0.434
548.5	0.435
549.0	0.435
549.5	0.435
550.0	0.435
550.5	0.436
551.0	0.436
551.5	0.436
552.0	0.436
552.5	0.436
553.0	0.436
553.5	0.436
554.0	0.437
554.5	0.437
555.0	0.437
555.5	0.437
556.0	0.438
556.5	0.438
557.0	0.438
557.5	0.439
558.0	0.439
558.5	0.439
559.0	0.440
559.5	0.440
560.0	0.440
560.5	0.440
561.0	0.441
561.5	0.441
562.0	0.441
562.5	0.441
563.0	0.441
563.5	0.441
564.0	0.442
564.5	0.442
565.0	0.442
565.5	0.442
566.0	0.442
566.5	0.443
567.0	0.443
567.5	0.443
568.0	0.443
568.5	0.443
569.0	0.444
569.5	0.444
570.0	0.444
570.5	0.444
571.0	0.445
571.5	0.445
572.0	0.445
572.5	0.445
573.0	0.445
573.5	0.445
574.0	0.446
574.5	0.446
575.0	0.446
575.5	0.446
576.0	0.446
576.5	0.447
577.0	0.447
577.5	0.447
578.0	0.447
578.5	0.447
579.0	0.448
579.5	0.448
580.0	0.448
580.5	0.449
581.0	0.449
581.5	0.449
582.0	0.449
582.5	0.450
583.0	0.450
583.5	0.450
584.0	0.450
584.5	0.450
585.0	0.450
585.5	0.450
586.0	0.451
586.5	0.451
587.0	0.451
587.5	0.451
588.0	0.451
588.5	0.451
589.0	0.451
589.5	0.451
590.0	0.452
590.5	0.452
591.0	0.452
591.5	0.452
592.0	0.452
592.5	0.452
593.0	0.452
593.5	0.453
594.0	0.453
594.5	0.453
595.0	0.453
595.5	0.454
596.0	0.454
596.5	0.454
597.0	0.454
597.5	0.454
598.0	0.454
598.5	0.454
599.0	0.455
599.5	0.455
600.0	0.455
600.5	0.455
601.0	0.456
601.5	0.456
602.0	0.456
602.5	0.457
603.0	0.457
603.5	0.457
604.0	0.457
604.5	0.457
605.0	0.457
605.5	0.458
606.0	0.458
606.5	0.458
607.0	0.458
607.5	0.458
608.0	0.458
608.5	0.459
609.0	0.459
609.5	0.459
610.0	0.459
610.5	0.459
611.0	0.460
611.5	0.460
612.0	0.460
612.5	0.460
613.0	0.460
613.5	0.460
614.0	0.461
614.5	0.461
615.0	0.461
615.5	0.461
616.0	0.461
616.5	0.461
617.0	0.461
617.5	0.461
618.0	0.462
618.5	0.462
619.0	0.462
619.5	0.462
620.0	0.463
620.5	0.463
621.0	0.463
621.5	0.463
622.0	0.463
622.5	0.463
623.0	0.463
623.5	0.464
624.0	0.464
624.5	0.464
625.0	0.464
625.5	0.464
626.0	0.464
626.5	0.464
627.0	0.464
627.5	0.465
628.0	0.465
628.5	0.465
629.0	0.465
629.5	0.465
630.0	0.465
630.5	0.465
631.0	0.466
631.5	0.466
632.0	0.466
632.5	0.467
633.0	0.467
633.5	0.467
634.0	0.468
634.5	0.468
635.0	0.468
635.5	0.468
636.0	0.468
636.5	0.468
637.0	0.469
637.5	0.469
638.0	0.469
638.5	0.469
639.0	0.470
639.5	0.470
640.0	0.470
640.5	0.470
641.0	0.470
641.5	0.470
642.0	0.470
642.5	0.470
643.0	0.470
643.5	0.470
644.0	0.471
644.5	0.471
645.0	0.471
645.5	0.471
646.0	0.470
646.5	0.471
647.0	0.471
647.5	0.471
648.0	0.471
648.5	0.471
649.0	0.471
649.5	0.471
650.0	0.472
650.5	0.472
651.0	0.473
651.5	0.473
652.0	0.473
652.5	0.473
653.0	0.474
653.5	0.474
654.0	0.474
654.5	0.474
655.0	0.474
655.5	0.474
656.0	0.475
656.5	0.475
657.0	0.475
657.5	0.476
658.0	0.476
658.5	0.476
659.0	0.476
659.5	0.476
660.0	0.476
660.5	0.476
661.0	0.475
661.5	0.475
662.0	0.475
662.5	0.475
663.0	0.475
663.5	0.475
664.0	0.476
664.5	0.476
665.0	0.475
665.5	0.476
666.0	0.476
666.5	0.476
667.0	0.476
667.5	0.476
668.0	0.477
668.5	0.477
669.0	0.477
669.5	0.477
670.0	0.477
670.5	0.478
671.0	0.478
671.5	0.478
672.0	0.478
672.5	0.478
673.0	0.478
673.5	0.478
674.0	0.478
674.5	0.478
675.0	0.478
675.5	0.477
676.0	0.477
676.5	0.478
677.0	0.478
677.5	0.478
678.0	0.478
678.5	0.479
679.0	0.479
679.5	0.478
680.0	0.479
680.5	0.479
681.0	0.479
681.5	0.479
682.0	0.479
682.5	0.479
683.0	0.480
683.5	0.480
684.0	0.480
684.5	0.481
685.0	0.480
685.5	0.481
686.0	0.481
686.5	0.481
687.0	0.481
687.5	0.481
688.0	0.481
688.5	0.481
689.0	0.482
689.5	0.482
690.0	0.482
690.5	0.482
691.0	0.482
691.5	0.483
692.0	0.483
692.5	0.483
693.0	0.484
693.5	0.484
694.0	0.483
694.5	0.484
695.0	0.484
695.5	0.484
696.0	0.484
696.5	0.485
697.0	0.484
697.5	0.484
698.0	0.484
698.5	0.484
699.0	0.484
699.5	0.484
700.0	0.484



2/2/2021 9:43 AM
Wavelength (nm)	10mm Absorbance
//WLCalib: Shift 	0.01000	
//WLCalib: 261S 	-0.50000	
//WLCalib: 362S 	-0.51000	
//WLCalib: 484S 	-0.29000	
//WLCalib: 529S 	-0.04000	
//WLCalib: 823S 	-0.52000	
//QSpecEnd: 
250.0	0.163
250.5	0.217
251.0	0.247
251.5	0.273
252.0	0.307
252.5	0.322
253.0	0.331
253.5	0.351
254.0	0.362
254.5	0.369
255.0	0.376
255.5	0.383
256.0	0.384
256.5	0.387
257.0	0.390
257.5	0.391
258.0	0.392
258.5	0.393
259.0	0.394
259.5	0.393
260.0	0.394
260.5	0.395
261.0	0.395
261.5	0.395
262.0	0.396
262.5	0.396
263.0	0.397
263.5	0.398
264.0	0.399
264.5	0.399
265.0	0.400
265.5	0.401
266.0	0.401
266.5	0.401
267.0	0.402
267.5	0.403
268.0	0.403
268.5	0.403
269.0	0.404
269.5	0.405
270.0	0.405
270.5	0.405
271.0	0.406
271.5	0.406
272.0	0.407
272.5	0.407
273.0	0.407
273.5	0.407
274.0	0.408
274.5	0.408
275.0	0.408
275.5	0.409
276.0	0.409
276.5	0.409
277.0	0.409
277.5	0.410
278.0	0.410
278.5	0.410
279.0	0.410
279.5	0.410
280.0	0.410
280.5	0.411
281.0	0.411
281.5	0.412
282.0	0.412
282.5	0.412
283.0	0.412
283.5	0.413
284.0	0.413
284.5	0.413
285.0	0.413
285.5	0.414
286.0	0.414
286.5	0.414
287.0	0.415
287.5	0.415
288.0	0.416
288.5	0.416
289.0	0.416
289.5	0.416
290.0	0.417
290.5	0.418
291.0	0.418
291.5	0.419
292.0	0.419
292.5	0.420
293.0	0.420
293.5	0.420
294.0	0.421
294.5	0.421
295.0	0.421
295.5	0.422
296.0	0.422
296.5	0.422
297.0	0.423
297.5	0.423
298.0	0.423
298.5	0.423
299.0	0.424
299.5	0.424
300.0	0.425
300.5	0.425
301.0	0.425
301.5	0.426
302.0	0.426
302.5	0.427
303.0	0.427
303.5	0.427
304.0	0.427
304.5	0.428
305.0	0.428
305.5	0.428
306.0	0.428
306.5	0.428
307.0	0.429
307.5	0.429
308.0	0.429
308.5	0.429
309.0	0.429
309.5	0.429
310.0	0.429
310.5	0.429
311.0	0.429
311.5	0.429
312.0	0.429
312.5	0.429
313.0	0.429
313.5	0.429
314.0	0.430
314.5	0.430
315.0	0.430
315.5	0.430
316.0	0.431
316.5	0.431
317.0	0.431
317.5	0.432
318.0	0.432
318.5	0.432
319.0	0.432
319.5	0.433
320.0	0.433
320.5	0.433
321.0	0.434
321.5	0.434
322.0	0.434
322.5	0.434
323.0	0.434
323.5	0.435
324.0	0.435
324.5	0.435
325.0	0.435
325.5	0.435
326.0	0.435
326.5	0.436
327.0	0.436
327.5	0.436
328.0	0.436
328.5	0.436
329.0	0.437
329.5	0.437
330.0	0.437
330.5	0.437
331.0	0.437
331.5	0.437
332.0	0.438
332.5	0.438
333.0	0.438
333.5	0.438
334.0	0.438
334.5	0.438
335.0	0.438
335.5	0.438
336.0	0.439
336.5	0.438
337.0	0.438
337.5	0.439
338.0	0.439
338.5	0.439
339.0	0.439
339.5	0.439
340.0	0.439
340.5	0.439
341.0	0.439
341.5	0.440
342.0	0.440
342.5	0.440
343.0	0.440
343.5	0.440
344.0	0.440
344.5	0.440
345.0	0.441
345.5	0.441
346.0	0.441
346.5	0.441
347.0	0.441
347.5	0.442
348.0	0.442
348.5	0.442
349.0	0.442
349.5	0.442
350.0	0.443
350.5	0.443
351.0	0.443
351.5	0.443
352.0	0.444
352.5	0.444
353.0	0.444
353.5	0.444
354.0	0.444
354.5	0.445
355.0	0.445
355.5	0.445
356.0	0.445
356.5	0.445
357.0	0.445
357.5	0.445
358.0	0.446
358.5	0.446
359.0	0.446
359.5	0.446
360.0	0.446
360.5	0.447
361.0	0.447
361.5	0.447
362.0	0.448
362.5	0.448
363.0	0.448
363.5	0.448
364.0	0.449
364.5	0.449
365.0	0.449
365.5	0.450
366.0	0.450
366.5	0.451
367.0	0.451
367.5	0.451
368.0	0.452
368.5	0.452
369.0	0.453
369.5	0.453
370.0	0.454
370.5	0.454
371.0	0.455
371.5	0.455
372.0	0.455
372.5	0.456
373.0	0.456
373.5	0.456
374.0	0.456
374.5	0.457
375.0	0.457
375.5	0.457
376.0	0.457
376.5	0.458
377.0	0.458
377.5	0.458
378.0	0.458
378.5	0.458
379.0	0.458
379.5	0.459
380.0	0.459
380.5	0.459
381.0	0.460
381.5	0.460
382.0	0.460
382.5	0.460
383.0	0.461
383.5	0.461
384.0	0.461
384.5	0.461
385.0	0.461
385.5	0.462
386.0	0.462
386.5	0.462
387.0	0.463
387.5	0.463
388.0	0.464
388.5	0.464
389.0	0.465
389.5	0.465
390.0	0.465
390.5	0.466
391.0	0.466
391.5	0.466
392.0	0.466
392.5	0.466
393.0	0.466
393.5	0.467
394.0	0.467
394.5	0.467
395.0	0.467
395.5	0.467
396.0	0.467
396.5	0.467
397.0	0.467
397.5	0.468
398.0	0.468
398.5	0.468
399.0	0.469
399.5	0.469
400.0	0.470
400.5	0.470
401.0	0.470
401.5	0.471
402.0	0.471
402.5	0.472
403.0	0.472
403.5	0.472
404.0	0.473
404.5	0.473
405.0	0.473
405.5	0.473
406.0	0.474
406.5	0.474
407.0	0.474
407.5	0.475
408.0	0.475
408.5	0.475
409.0	0.475
409.5	0.476
410.0	0.476
410.5	0.476
411.0	0.477
411.5	0.477
412.0	0.477
412.5	0.478
413.0	0.478
413.5	0.478
414.0	0.479
414.5	0.479
415.0	0.479
415.5	0.480
416.0	0.480
416.5	0.480
417.0	0.480
417.5	0.480
418.0	0.480
418.5	0.480
419.0	0.480
419.5	0.480
420.0	0.480
420.5	0.481
421.0	0.481
421.5	0.481
422.0	0.481
422.5	0.481
423.0	0.481
423.5	0.482
424.0	0.482
424.5	0.482
425.0	0.483
425.5	0.484
426.0	0.484
426.5	0.485
427.0	0.485
427.5	0.486
428.0	0.487
428.5	0.487
429.0	0.488
429.5	0.489
430.0	0.489
430.5	0.490
431.0	0.491
431.5	0.491
432.0	0.491
432.5	0.492
433.0	0.492
433.5	0.493
434.0	0.493
434.5	0.494
435.0	0.494
435.5	0.494
436.0	0.494
436.5	0.495
437.0	0.495
437.5	0.495
438.0	0.496
438.5	0.496
439.0	0.496
439.5	0.497
440.0	0.497
440.5	0.498
441.0	0.498
441.5	0.498
442.0	0.498
442.5	0.499
443.0	0.499
443.5	0.500
444.0	0.500
444.5	0.500
445.0	0.501
445.5	0.501
446.0	0.501
446.5	0.502
447.0	0.502
447.5	0.502
448.0	0.502
448.5	0.503
449.0	0.503
449.5	0.504
450.0	0.504
450.5	0.504
451.0	0.505
451.5	0.505
452.0	0.506
452.5	0.506
453.0	0.506
453.5	0.507
454.0	0.507
454.5	0.507
455.0	0.508
455.5	0.508
456.0	0.509
456.5	0.509
457.0	0.510
457.5	0.510
458.0	0.510
458.5	0.510
459.0	0.511
459.5	0.511
460.0	0.511
460.5	0.512
461.0	0.512
461.5	0.512
462.0	0.513
462.5	0.513
463.0	0.513
463.5	0.514
464.0	0.514
464.5	0.514
465.0	0.514
465.5	0.515
466.0	0.515
466.5	0.516
467.0	0.516
467.5	0.517
468.0	0.517
468.5	0.517
469.0	0.518
469.5	0.518
470.0	0.518
470.5	0.519
471.0	0.519
471.5	0.520
472.0	0.520
472.5	0.521
473.0	0.521
473.5	0.522
474.0	0.522
474.5	0.522
475.0	0.523
475.5	0.523
476.0	0.523
476.5	0.524
477.0	0.524
477.5	0.525
478.0	0.525
478.5	0.525
479.0	0.525
479.5	0.525
480.0	0.525
480.5	0.525
481.0	0.525
481.5	0.525
482.0	0.526
482.5	0.526
483.0	0.526
483.5	0.526
484.0	0.526
484.5	0.526
485.0	0.526
485.5	0.526
486.0	0.527
486.5	0.527
487.0	0.527
487.5	0.528
488.0	0.528
488.5	0.529
489.0	0.529
489.5	0.530
490.0	0.530
490.5	0.531
491.0	0.531
491.5	0.532
492.0	0.533
492.5	0.534
493.0	0.534
493.5	0.535
494.0	0.535
494.5	0.536
495.0	0.537
495.5	0.537
496.0	0.538
496.5	0.538
497.0	0.539
497.5	0.539
498.0	0.540
498.5	0.540
499.0	0.541
499.5	0.541
500.0	0.542
500.5	0.542
501.0	0.543
501.5	0.543
502.0	0.544
502.5	0.545
503.0	0.545
503.5	0.545
504.0	0.546
504.5	0.546
505.0	0.547
505.5	0.547
506.0	0.548
506.5	0.548
507.0	0.548
507.5	0.549
508.0	0.549
508.5	0.549
509.0	0.550
509.5	0.550
510.0	0.550
510.5	0.550
511.0	0.551
511.5	0.551
512.0	0.551
512.5	0.552
513.0	0.552
513.5	0.552
514.0	0.553
514.5	0.553
515.0	0.554
515.5	0.554
516.0	0.554
516.5	0.554
517.0	0.555
517.5	0.555
518.0	0.556
518.5	0.556
519.0	0.557
519.5	0.557
520.0	0.557
520.5	0.557
521.0	0.557
521.5	0.558
522.0	0.558
522.5	0.558
523.0	0.559
523.5	0.559
524.0	0.559
524.5	0.559
525.0	0.559
525.5	0.560
526.0	0.560
526.5	0.559
527.0	0.560
527.5	0.560
528.0	0.560
528.5	0.560
529.0	0.561
529.5	0.561
530.0	0.561
530.5	0.561
531.0	0.562
531.5	0.562
532.0	0.563
532.5	0.563
533.0	0.564
533.5	0.564
534.0	0.565
534.5	0.565
535.0	0.566
535.5	0.566
536.0	0.567
536.5	0.567
537.0	0.567
537.5	0.568
538.0	0.568
538.5	0.568
539.0	0.568
539.5	0.569
540.0	0.569
540.5	0.570
541.0	0.570
541.5	0.570
542.0	0.570
542.5	0.571
543.0	0.571
543.5	0.571
544.0	0.572
544.5	0.572
545.0	0.572
545.5	0.573
546.0	0.573
546.5	0.573
547.0	0.574
547.5	0.574
548.0	0.575
548.5	0.575
549.0	0.576
549.5	0.576
550.0	0.576
550.5	0.577
551.0	0.577
551.5	0.578
552.0	0.578
552.5	0.578
553.0	0.579
553.5	0.579
554.0	0.579
554.5	0.580
555.0	0.580
555.5	0.580
556.0	0.580
556.5	0.581
557.0	0.581
557.5	0.581
558.0	0.581
558.5	0.582
559.0	0.582
559.5	0.583
560.0	0.583
560.5	0.583
561.0	0.584
561.5	0.584
562.0	0.584
562.5	0.585
563.0	0.585
563.5	0.585
564.0	0.586
564.5	0.586
565.0	0.586
565.5	0.587
566.0	0.587
566.5	0.587
567.0	0.587
567.5	0.588
568.0	0.587
568.5	0.588
569.0	0.588
569.5	0.589
570.0	0.589
570.5	0.589
571.0	0.589
571.5	0.589
572.0	0.589
572.5	0.590
573.0	0.590
573.5	0.590
574.0	0.590
574.5	0.591
575.0	0.591
575.5	0.591
576.0	0.591
576.5	0.592
577.0	0.592
577.5	0.592
578.0	0.593
578.5	0.593
579.0	0.594
579.5	0.594
580.0	0.594
580.5	0.595
581.0	0.595
581.5	0.595
582.0	0.596
582.5	0.596
583.0	0.596
583.5	0.597
584.0	0.597
584.5	0.598
585.0	0.598
585.5	0.598
586.0	0.599
586.5	0.599
587.0	0.599
587.5	0.599
588.0	0.600
588.5	0.600
589.0	0.600
589.5	0.600
590.0	0.601
590.5	0.601
591.0	0.602
591.5	0.602
592.0	0.602
592.5	0.602
593.0	0.602
593.5	0.602
594.0	0.602
594.5	0.603
595.0	0.603
595.5	0.603
596.0	0.603
596.5	0.603
597.0	0.604
597.5	0.604
598.0	0.604
598.5	0.604
599.0	0.604
599.5	0.604
600.0	0.605
600.5	0.605
601.0	0.605
601.5	0.606
602.0	0.606
602.5	0.607
603.0	0.607
603.5	0.607
604.0	0.608
604.5	0.608
605.0	0.608
605.5	0.609
606.0	0.609
606.5	0.609
607.0	0.609
607.5	0.610
608.0	0.610
608.5	0.610
609.0	0.610
609.5	0.610
610.0	0.610
610.5	0.610
611.0	0.611
611.5	0.611
612.0	0.611
612.5	0.611
613.0	0.611
613.5	0.612
614.0	0.612
614.5	0.612
615.0	0.613
615.5	0.613
616.0	0.614
616.5	0.614
617.0	0.615
617.5	0.615
618.0	0.615
618.5	0.616
619.0	0.616
619.5	0.616
620.0	0.617
620.5	0.617
621.0	0.617
621.5	0.617
622.0	0.618
622.5	0.618
623.0	0.618
623.5	0.618
624.0	0.618
624.5	0.619
625.0	0.619
625.5	0.619
626.0	0.619
626.5	0.619
627.0	0.620
627.5	0.620
628.0	0.620
628.5	0.620
629.0	0.620
629.5	0.621
630.0	0.621
630.5	0.621
631.0	0.621
631.5	0.622
632.0	0.622
632.5	0.622
633.0	0.622
633.5	0.623
634.0	0.623
634.5	0.624
635.0	0.624
635.5	0.624
636.0	0.624
636.5	0.625
637.0	0.625
637.5	0.625
638.0	0.625
638.5	0.626
639.0	0.626
639.5	0.626
640.0	0.627
640.5	0.628
641.0	0.627
641.5	0.627
642.0	0.628
642.5	0.628
643.0	0.629
643.5	0.629
644.0	0.629
644.5	0.629
645.0	0.630
645.5	0.630
646.0	0.630
646.5	0.630
647.0	0.630
647.5	0.630
648.0	0.630
648.5	0.631
649.0	0.631
649.5	0.632
650.0	0.632
650.5	0.632
651.0	0.632
651.5	0.633
652.0	0.632
652.5	0.632
653.0	0.633
653.5	0.633
654.0	0.633
654.5	0.634
655.0	0.634
655.5	0.634
656.0	0.634
656.5	0.635
657.0	0.635
657.5	0.634
658.0	0.634
658.5	0.634
659.0	0.634
659.5	0.635
660.0	0.635
660.5	0.635
661.0	0.636
661.5	0.636
662.0	0.636
662.5	0.636
663.0	0.636
663.5	0.636
664.0	0.636
664.5	0.637
665.0	0.637
665.5	0.638
666.0	0.639
666.5	0.639
667.0	0.639
667.5	0.639
668.0	0.639
668.5	0.639
669.0	0.639
669.5	0.639
670.0	0.639
670.5	0.639
671.0	0.639
671.5	0.640
672.0	0.640
672.5	0.640
673.0	0.639
673.5	0.640
674.0	0.640
674.5	0.640
675.0	0.640
675.5	0.640
676.0	0.641
676.5	0.641
677.0	0.641
677.5	0.642
678.0	0.642
678.5	0.643
679.0	0.644
679.5	0.643
680.0	0.643
680.5	0.644
681.0	0.644
681.5	0.644
682.0	0.644
682.5	0.645
683.0	0.645
683.5	0.646
684.0	0.646
684.5	0.646
685.0	0.647
685.5	0.648
686.0	0.647
686.5	0.647
687.0	0.647
687.5	0.648
688.0	0.648
688.5	0.648
689.0	0.648
689.5	0.648
690.0	0.648
690.5	0.649
691.0	0.648
691.5	0.648
692.0	0.648
692.5	0.648
693.0	0.648
693.5	0.648
694.0	0.648
694.5	0.648
695.0	0.648
695.5	0.648
696.0	0.648
696.5	0.648
697.0	0.648
697.5	0.648
698.0	0.648
698.5	0.648
699.0	0.648
699.5	0.648
700.0	0.648

